File: biologic_multiple_techniques_dataset/multiple_techniques_dataset_01_08_CVA_C01.mpt
EC-Lab ASCII FILE
Nb header lines : 75

Cyclic Voltammetry Advanced

Run on channel : 1 (SN 5836)
User :
Electrode connection : standard
Ewe ctrl range : min = -10.00 V, max = 10.00 V
Ewe,I filtering : <None>
Safety Limits :
	Do not start on E overload
Channel : Grounded
Acquisition started on : 05/05/2022 15:55:02
Saved on :
	File : multiple_techniques_dataset_01_08_CVA_C01.mpr
	Directory : C:\Users\Spectro Inlets\Desktop\Zilien Data Dir\multiple_techniques_dataset\
	Host : 192.168.1.105
Device : SP-200 (SN 0763)
Address : USB
EC-Lab for windows v11.27 (software)
Internet server v11.25 (firmware)
Command interpretor v11.27 (firmware)
Electrode material :
Initial state :
Electrolyte :
Comments :
Cable : standard
Electrode surface area : 0.001 cm²
Characteristic mass : 0.001 g
Equivalent Weight : 0.000 g/eq.
Density : 0.000 g/cm3
Cycle Definition : Charge/Discharge alternance
Ns                  0                   1
Ei (V)              0.000               0.990
vs.                 Ref                 Ref
ti (h:m:s)          0:00:3.0000         0:00:3.0000
dti (s)             1.0000              1.0000
dE/dt               50.000              20.000
dE/dt unit          mV/s                mV/s
E1 (V)              1.000               1.000
vs.                 Ref                 Ref
t1 (h:m:s)          0:00:0.0000         0:00:10.0000
dt1 (s)             0.1000              0.1000
Step percent        80                  80
N                   40                  40
E range min (V)     -10.000             -10.000
E range max (V)     10.000              10.000
I Range             100 µA              100 µA
I Range min         Unset               Unset
I Range max         Unset               Unset
I Range init        Unset               Unset
Bandwidth           1                   1
E2 (V)              0.000               0.000
vs.                 Ref                 Ref
t2 (h:m:s)          0:00:0.0000         0:00:0.0000
dt2 (s)             0.1000              0.1000
nc cycles           1                   444
nr                  1                   1
Reverse Scan        1                   1
Ef (V)              0.100               0.050
vs.                 Eoc                 Eoc
tf (h:m:s)          0:00:3.0000         0:00:10.0000
dtf (s)             0.1000              0.1000

Modify on : 05/05/2022 16:10
Ns                  0                   1
nc cycles                               5

Modify on : 05/05/2022 16:10
Ns                  0                   1
E1 (V)                                  1.100
t1 (h:m:s)                              0:00:20.0000

mode	ox/red	error	control changes	Ns changes	counter inc.	time/s	control/V	Ewe/V	<I>/mA	cycle number	(Q-Qo)/C	I Range	Rcmp/Ohm	P/W
2	0	1	1	0	0	640.999	-6.12583e-05	-0.000383476	-0.250092	1	0.0000000E+000	41	0.0000000E+000	9.59044e-08
2	1	0	0	0	0	649.147	0.257093	0.257222	0.0269913	1	-3.29508e-05	41	0.0000000E+000	6.94277e-06
2	1	0	1	0	0	655.01	0.550278	0.550361	0.00349213	1	3.20666e-05	41	0.0000000E+000	1.92193e-06
2	1	0	1	0	0	660.874	0.843458	0.843787	0.00801505	1	5.56912e-05	41	0.0000000E+000	6.76299e-06
2	0	0	0	0	0	666.01	0.899431	0.899558	-0.00454085	1	8.51626e-05	41	0.0000000E+000	-4.08476e-06
2	0	0	0	0	0	671.874	0.606246	0.606459	-0.00100035	1	5.62346e-05	41	0.0000000E+000	-6.06669e-07
2	0	0	0	0	0	677.738	0.313066	0.313049	-0.00561583	1	4.68524e-05	41	0.0000000E+000	-1.75803e-06
2	0	0	1	0	0	683.598	0.0200467	0.0203207	-0.144267	1	-5.3654e-05	41	0.0000000E+000	-2.9316e-06
2	1	0	0	0	1	689.597	0.280083	0.280374	0.0105425	2	3.72098e-05	41	0.0000000E+000	2.95585e-06
2	1	0	0	0	1	695.46	0.573263	0.573454	0.00136035	2	5.87614e-05	41	0.0000000E+000	7.80096e-07
2	1	0	1	0	1	701.324	0.866448	0.866742	0.00894287	2	7.82411e-05	41	0.0000000E+000	7.75117e-06
2	0	0	0	0	1	706.534	0.872776	0.872879	-0.00618498	2	9.7928e-05	41	0.0000000E+000	-5.39874e-06
2	0	0	1	0	1	712.397	0.579591	0.57977	-0.00119089	2	6.98116e-05	41	0.0000000E+000	-6.90441e-07
2	0	0	1	0	1	718.261	0.286411	0.286509	-0.00915351	2	5.58388e-05	41	0.0000000E+000	-2.62256e-06
2	0	0	0	0	0	724.193	0.0103884	0.0105278	0.0484696	2	-0.000118694	41	0.0000000E+000	5.10281e-07
2	1	0	0	0	0	730.126	0.307068	0.307337	0.0099624	2	5.22308e-05	41	0.0000000E+000	3.06181e-06
2	1	0	0	0	0	735.99	0.600248	0.600276	0.00131948	2	6.83365e-05	41	0.0000000E+000	7.92053e-07
2	1	0	0	0	0	741.854	0.893433	0.893609	0.00957809	2	9.10232e-05	41	0.0000000E+000	8.55906e-06
2	1	0	0	0	0	744.397	0.925915	0.926195	0.00145634	2	0.000102549	41	0.0000000E+000	1.34885e-06
2	1	0	1	0	0	749.598	0.999877	1.00107	0.00141591	3	0.000117826	41	0.0000000E+000	1.41744e-06
2	1	0	1	0	0	751.798	0.999877	1.00053	0.000915274	3	0.000120244	41	0.0000000E+000	9.15758e-07
2	1	0	1	0	0	753.998	0.999877	1.0007	0.000704673	3	0.000121983	41	0.0000000E+000	7.05164e-07
2	0	0	1	0	0	756.198	0.999877	1.00085	0.000590117	3	0.000123391	41	0.0000000E+000	5.90618e-07
2	1	0	1	0	0	758.398	0.999877	0.999921	0.000494853	3	0.000124585	41	0.0000000E+000	4.94814e-07
2	0	0	0	0	0	768.683	0.806476	0.806723	-0.00430256	3	0.000100392	41	0.0000000E+000	-3.47098e-06
2	0	0	1	0	0	783.342	0.513296	0.513437	-0.000627583	3	7.66761e-05	41	0.0000000E+000	-3.22224e-07
2	1	0	0	0	0	798.001	0.220114	0.220354	-0.0040033	3	4.75135e-05	41	0.0000000E+000	-8.82144e-07
2	1	0	1	0	1	812.088	0.0618629	0.0620607	0.0200786	3	-9.59983e-05	41	0.0000000E+000	1.24609e-06
2	1	0	0	0	1	826.747	0.355043	0.355375	0.00130973	3	-1.36984e-05	41	0.0000000E+000	4.65447e-07
2	1	0	1	0	1	834.919	0.496804	0.495859	0.000173237	3	-8.26704e-06	41	0.0000000E+000	8.59011e-08
2	1	0	1	0	1	837.119	0.496804	0.496948	7.46921e-05	3	-8.01857e-06	41	0.0000000E+000	3.71181e-08
2	0	0	1	0	1	839.319	0.496804	0.496653	1.73753e-05	3	-7.92674e-06	41	0.0000000E+000	8.6295e-09
2	0	0	1	0	1	841.519	0.496804	0.497077	-1.67474e-05	3	-7.93478e-06	41	0.0000000E+000	-8.32477e-09
2	0	0	1	0	1	843.719	0.496804	0.496577	-4.83149e-05	3	-8.01417e-06	41	0.0000000E+000	-2.39921e-08
2	1	0	0	0	1	856.838	0.23644	0.236548	-0.00440805	3	-3.08006e-05	41	0.0000000E+000	-1.04272e-06
2	1	0	0	0	0	871.076	0.048535	0.0487133	0.0299152	3	-0.000189725	41	0.0000000E+000	1.45727e-06
2	0	0	1	0	0	885.735	0.341717	0.341861	0.00185598	3	-9.28635e-05	41	0.0000000E+000	6.34489e-07
2	1	0	1	0	0	904.79	0.634898	0.635147	0.000668859	3	-8.16111e-05	41	0.0000000E+000	4.24824e-07
2	1	0	0	0	0	919.449	0.92808	0.928341	0.00428006	3	-5.14022e-05	41	0.0000000E+000	3.97336e-06
2	1	0	1	0	0	924.523	0.999877	0.999161	0.00166314	4	-3.18629e-05	41	0.0000000E+000	1.66175e-06
2	1	0	1	0	0	926.723	0.999877	0.99973	0.00104115	4	-2.90474e-05	41	0.0000000E+000	1.04087e-06
2	1	0	1	0	0	928.923	0.999877	0.999642	0.000788505	4	-2.70793e-05	41	0.0000000E+000	7.88223e-07
2	1	0	1	0	0	931.123	0.999877	0.99918	0.000648273	4	-2.55108e-05	41	0.0000000E+000	6.47741e-07
2	0	0	1	0	0	934.045	0.979719	0.979876	-0.000696866	4	-2.49341e-05	41	0.0000000E+000	-6.82842e-07
2	0	0	0	0	0	948.704	0.68654	0.686727	-0.0011143	4	-6.22493e-05	41	0.0000000E+000	-7.6522e-07
2	0	0	1	0	0	963.363	0.393358	0.393588	-0.000774958	4	-7.43473e-05	41	0.0000000E+000	-3.05014e-07
2	0	0	1	0	0	978.023	0.100176	0.100243	-0.00755331	4	-0.000130997	41	0.0000000E+000	-7.57167e-07
2	0	0	1	0	1	992.11	0.181801	0.182022	0.00419528	4	-0.000190965	41	0.0000000E+000	7.63635e-07
2	1	0	1	0	1	1006.77	0.474982	0.475033	0.000470227	4	-0.000155481	41	0.0000000E+000	2.23374e-07
2	1	0	0	0	1	1021.43	0.768162	0.768366	0.00106155	4	-0.000143644	41	0.0000000E+000	8.15663e-07
2	1	0	1	0	1	1034.87	1.03702	1.03729	0.00461269	5	-9.6221e-05	41	0.0000000E+000	4.78468e-06
2	1	0	0	0	1	1039.71	1.10016	1.10043	0.00214528	5	-7.59141e-05	41	0.0000000E+000	2.36074e-06
2	1	0	0	0	1	1041.91	1.10016	1.09962	0.00142684	5	-7.21581e-05	41	0.0000000E+000	1.56898e-06
2	1	0	0	0	1	1044.11	1.10016	1.10029	0.00111322	5	-6.94093e-05	41	0.0000000E+000	1.22486e-06
2	1	0	0	0	1	1046.31	1.10016	1.09997	0.000930846	5	-6.71846e-05	41	0.0000000E+000	1.0239e-06
2	1	0	0	0	1	1048.51	1.10016	1.10007	0.000808307	5	-6.52941e-05	41	0.0000000E+000	8.89194e-07
2	1	0	0	0	1	1050.71	1.10016	1.10089	0.000710611	5	-6.3635e-05	41	0.0000000E+000	7.82303e-07
2	1	0	0	0	1	1052.91	1.10016	1.10107	0.000646625	5	-6.21498e-05	41	0.0000000E+000	7.11977e-07
2	1	0	0	0	1	1055.11	1.10016	1.10022	0.000582665	5	-6.08041e-05	41	0.0000000E+000	6.41061e-07
2	1	0	0	0	1	1057.31	1.10016	1.1006	0.000541136	5	-5.95659e-05	41	0.0000000E+000	5.95574e-07
2	0	0	1	0	1	1067.02	0.920083	0.920292	-0.00326127	5	-7.29208e-05	41	0.0000000E+000	-3.00132e-06
2	0	0	0	0	1	1081.67	0.626904	0.627112	-0.000952752	5	-0.000124749	41	0.0000000E+000	-5.97482e-07
2	0	0	1	0	1	1096.33	0.333722	0.333844	-0.00165114	5	-0.000138776	41	0.0000000E+000	-5.51223e-07
2	0	0	1	0	1	1110.99	0.0405402	0.0406376	-0.0164807	5	-0.000219945	41	0.0000000E+000	-6.69736e-07
2	0	0	0	0	0	1125.43	0.248433	0.248621	0.00374606	5	-0.000239775	41	0.0000000E+000	9.3135e-07
2	1	0	0	0	0	1140.09	0.541614	0.54168	0.000497958	5	-0.000215793	41	0.0000000E+000	2.69733e-07
2	1	0	1	0	0	1154.75	0.834794	0.835082	0.00243297	5	-0.000200313	41	0.0000000E+000	2.03173e-06
2	1	0	0	0	0	1167.93	1.09849	1.09879	0.00491969	6	-0.000143602	41	0.0000000E+000	5.40572e-06
2	1	0	1	0	0	1170.2	1.10016	1.1005	0.0018664	6	-0.000137462	41	0.0000000E+000	2.05398e-06
2	1	0	1	0	0	1172.4	1.10016	1.10049	0.00130156	6	-0.000134102	41	0.0000000E+000	1.43234e-06
2	1	0	1	0	0	1174.6	1.10016	1.10075	0.00102876	6	-0.00013157	41	0.0000000E+000	1.13241e-06
2	1	0	1	0	0	1176.8	1.10016	1.10028	0.000870678	6	-0.000129503	41	0.0000000E+000	9.57986e-07
2	1	0	1	0	0	1179	1.10016	1.10063	0.00075076	6	-0.000127732	41	0.0000000E+000	8.26312e-07
2	1	0	1	0	0	1181.2	1.10016	1.10019	0.000657801	6	-0.000126175	41	0.0000000E+000	7.23704e-07
2	1	0	1	0	0	1183.4	1.10016	1.0997	0.000618207	6	-0.000124769	41	0.0000000E+000	6.79844e-07
2	1	0	1	0	0	1185.6	1.10016	1.10031	0.000549138	6	-0.000123496	41	0.0000000E+000	6.04224e-07
2	1	0	1	0	0	1187.8	1.10016	1.10108	0.000510109	6	-0.000122327	41	0.0000000E+000	5.61672e-07
2	0	0	0	0	0	1200.34	0.853451	0.853546	-0.00522223	6	-0.000150731	41	0.0000000E+000	-4.45741e-06
2	0	0	1	0	0	1215	0.560272	0.560495	-0.000747483	6	-0.000191426	41	0.0000000E+000	-4.1896e-07
2	1	0	0	0	0	1229.65	0.26709	0.267254	-0.0044757	6	-0.000212896	41	0.0000000E+000	-1.19615e-06
2	1	0	0	0	1	1244.09	0.0218831	0.0220512	0.0775573	6	-0.000444235	41	0.0000000E+000	1.71024e-06
2	0	0	1	0	1	1258.75	0.315065	0.315244	0.00340919	6	-0.000290633	41	0.0000000E+000	1.07472e-06
2	1	0	1	0	1	1273.41	0.608246	0.6084	0.000583559	6	-0.000277284	41	0.0000000E+000	3.55037e-07
2	1	0	0	0	1	1288.07	0.901426	0.90169	0.00400584	6	-0.000252296	41	0.0000000E+000	3.61203e-06
2	1	0	0	0	1	1298.49	1.10016	1.09961	0.00317579	7	-0.000205241	41	0.0000000E+000	3.49212e-06
2	1	0	0	0	1	1300.69	1.10016	1.10049	0.00167558	7	-0.000200433	41	0.0000000E+000	1.84397e-06
2	1	0	0	0	1	1302.89	1.10016	1.10112	0.00121315	7	-0.000197352	41	0.0000000E+000	1.33581e-06
2	1	0	0	0	1	1305.09	1.10016	1.10031	0.000975414	7	-0.000194986	41	0.0000000E+000	1.07325e-06
2	1	0	0	0	1	1307.29	1.10016	1.10014	0.000823082	7	-0.000193019	41	0.0000000E+000	9.05507e-07
2	1	0	0	0	1	1309.49	1.10016	1.09996	0.000724041	7	-0.000191328	41	0.0000000E+000	7.96415e-07
2	1	0	0	0	1	1311.69	1.10016	1.10033	0.000645434	7	-0.000189831	41	0.0000000E+000	7.10192e-07
2	1	0	0	0	1	1313.89	1.10016	1.09958	0.000586485	7	-0.000188483	41	0.0000000E+000	6.4489e-07
2	1	0	0	0	1	1316.09	1.10016	1.10044	0.000533269	7	-0.000187251	41	0.0000000E+000	5.86832e-07
2	0	0	1	0	1	1319	1.08	1.08009	-0.000315079	7	-0.00018656	41	0.0000000E+000	-3.40314e-07
2	0	0	1	0	1	1333.66	0.78682	0.786954	-0.00498557	7	-0.000233594	41	0.0000000E+000	-3.92341e-06
2	0	0	0	0	1	1348.32	0.49364	0.493715	-0.000702053	7	-0.00025853	41	0.0000000E+000	-3.46615e-07
2	1	0	0	0	1	1362.97	0.200456	0.200506	-0.0039264	7	-0.000291574	41	0.0000000E+000	-7.87268e-07
2	1	0	1	0	0	1377.41	0.0885149	0.0889072	0.0094054	7	-0.000409383	41	0.0000000E+000	8.36208e-07
2	1	0	0	0	0	1392.07	0.381697	0.381894	0.000781915	7	-0.00034859	41	0.0000000E+000	2.98609e-07
2	1	0	0	0	0	1406.73	0.674878	0.675053	0.000818214	7	-0.000338744	41	0.0000000E+000	5.52338e-07
2	1	0	0	0	0	1417.37	0.875608	0.876534	0.00141661	7	-0.000320591	41	0.0000000E+000	1.24171e-06
2	1	0	0	0	0	1419.57	0.875608	0.87603	0.000658063	7	-0.000318604	41	0.0000000E+000	5.76483e-07
2	1	0	0	0	0	1421.77	0.875608	0.87522	0.000446937	7	-0.00031743	41	0.0000000E+000	3.91168e-07
2	1	0	0	0	0	1423.97	0.875608	0.875373	0.000341615	7	-0.000316572	41	0.0000000E+000	2.99041e-07
2	0	0	0	0	0	1426.17	0.875608	0.876282	0.000277281	7	-0.000315893	41	0.0000000E+000	2.42976e-07
2	0	0	0	0	0	1426.77	0.875608	0.876381	0.000275604	7	-0.000315727	41	0.0000000E+000	2.41534e-07