File: biologic_multiple_techniques_dataset/multiple_techniques_dataset_01_02_CVA_C01.mpt
EC-Lab ASCII FILE
Nb header lines : 66

Cyclic Voltammetry Advanced

Run on channel : 1 (SN 5836)
User :
Electrode connection : standard
Ewe ctrl range : min = -10.00 V, max = 10.00 V
Ewe,I filtering : <None>
Safety Limits :
	Do not start on E overload
Channel : Grounded
Acquisition started on : 05/05/2022 15:55:02
Saved on :
	File : multiple_techniques_dataset_01_02_CVA_C01.mpr
	Directory : C:\Users\Spectro Inlets\Desktop\Zilien Data Dir\multiple_techniques_dataset\
	Host : 192.168.1.105
Device : SP-200 (SN 0763)
Address : USB
EC-Lab for windows v11.27 (software)
Internet server v11.25 (firmware)
Command interpretor v11.27 (firmware)
Electrode material :
Initial state :
Electrolyte :
Comments :
Cable : standard
Electrode surface area : 0.001 cm²
Characteristic mass : 0.001 g
Equivalent Weight : 0.000 g/eq.
Density : 0.000 g/cm3
Cycle Definition : Charge/Discharge alternance
Ns                  0                   1                   2
Ei (V)              0.000               0.000               0.000
vs.                 Eoc                 Eoc                 Eoc
ti (h:m:s)          0:00:10.0000        0:00:10.0000        0:00:5.0000
dti (s)             1.0000              1.0000              1.0000
dE/dt               20.000              200.000             50.000
dE/dt unit          mV/s                mV/s                mV/s
E1 (V)              1.700               1.700               1.700
vs.                 Ref                 Ref                 Ref
t1 (h:m:s)          0:00:0.0000         0:00:0.0000         0:00:0.0000
dt1 (s)             0.1000              0.1000              0.1000
Step percent        80                  80                  80
N                   20                  20                  40
E range min (V)     -10.000             -10.000             -10.000
E range max (V)     10.000              10.000              10.000
I Range             100 µA              100 µA              100 µA
I Range min         Unset               Unset               Unset
I Range max         Unset               Unset               Unset
I Range init        Unset               Unset               Unset
Bandwidth           1                   1                   1
E2 (V)              0.010               0.010               0.010
vs.                 Ref                 Ref                 Ref
t2 (h:m:s)          0:00:0.0000         0:00:0.0000         0:00:0.0000
dt2 (s)             0.1000              0.1000              0.1000
nc cycles           1                   1                   1
nr                  1                   1                   1
Reverse Scan        1                   1                   1
Ef (V)              0.900               0.900               0.900
vs.                 Ref                 Ref                 Ref
tf (h:m:s)          0:00:0.0000         0:00:0.0000         0:00:0.0000
dtf (s)             0.1000              0.1000              0.1000

mode	ox/red	error	control changes	Ns changes	counter inc.	time/s	control/V	Ewe/V	<I>/mA	cycle number	(Q-Qo)/C	I Range	Rcmp/Ohm	P/W
2	0	0	0	0	0	28.6816	0.917919	0.917703	-0.000437639	1	0.0000000E+000	41	0.0000000E+000	-4.01623e-07
2	1	0	0	0	0	43.2041	1.00804	1.00826	0.00155257	1	2.99561e-06	41	0.0000000E+000	1.5654e-06
2	1	0	0	0	0	51.2	1.16796	1.16825	0.00567378	1	3.33425e-05	41	0.0000000E+000	6.62837e-06
2	1	0	1	0	0	59.1959	1.32787	1.3281	0.00767567	1	8.92778e-05	41	0.0000000E+000	1.01941e-05
2	1	0	0	0	0	67.1917	1.48779	1.48802	0.00949932	1	0.000156184	41	0.0000000E+000	1.41352e-05
2	1	0	0	0	0	75.1876	1.64771	1.64791	0.0476842	1	0.000317125	41	0.0000000E+000	7.85793e-05
2	1	0	0	0	0	82.3168	1.60939	1.60964	0.00610246	1	0.000663494	41	0.0000000E+000	9.82274e-06
2	1	0	1	0	0	90.3126	1.44948	1.44958	0.000322994	1	0.000675892	41	0.0000000E+000	4.68207e-07
2	1	0	0	0	0	98.3085	1.28956	1.28962	-0.00017801	1	0.00067531	41	0.0000000E+000	-2.29566e-07
2	0	0	1	0	0	106.304	1.12964	1.12995	-0.000715395	1	0.000670968	41	0.0000000E+000	-8.08361e-07
2	0	0	1	0	0	114.3	0.969725	0.969905	-0.00196303	1	0.000660183	41	0.0000000E+000	-1.90396e-06
2	0	0	0	0	0	122.296	0.809809	0.809842	-0.00833195	1	0.000626916	41	0.0000000E+000	-6.74756e-06
2	0	0	1	0	0	130.292	0.649891	0.650097	-0.00624718	1	0.000499299	41	0.0000000E+000	-4.06127e-06
2	0	0	1	0	0	138.288	0.489973	0.490234	-0.00142368	1	0.000477764	41	0.0000000E+000	-6.97937e-07
2	0	0	0	0	0	146.284	0.330057	0.330292	-0.0021841	1	0.00046497	41	0.0000000E+000	-7.21392e-07
2	0	0	1	0	0	154.279	0.170139	0.170146	-0.00555885	1	0.00043114	41	0.0000000E+000	-9.45818e-07
2	0	0	0	0	0	162.192	0.0118894	0.0119654	-0.162365	1	0.000292373	41	0.0000000E+000	-1.94276e-06
2	0	0	0	0	1	169.466	0.153814	0.154126	0.00425128	1	0.000351444	41	0.0000000E+000	6.55232e-07
2	0	0	0	0	1	177.462	0.313732	0.313846	0.00272351	1	0.000379771	41	0.0000000E+000	8.54762e-07
2	1	0	1	0	1	185.458	0.47365	0.473826	0.000368934	1	0.000386478	41	0.0000000E+000	1.7481e-07
2	1	0	0	0	1	193.454	0.633566	0.633794	0.000860078	1	0.000391869	41	0.0000000E+000	5.45112e-07
2	1	0	0	0	1	201.45	0.793484	0.793751	0.00149555	1	0.000402754	41	0.0000000E+000	1.18709e-06
2	1	0	0	0	1	208.862	0.94174	0.94203	0.00433773	2	0.000425733	41	0.0000000E+000	4.08627e-06
2	1	0	1	0	1	216.858	1.10166	1.10192	0.00541253	2	0.000466014	41	0.0000000E+000	5.96415e-06
2	1	0	0	0	1	224.854	1.26157	1.26176	0.00648702	2	0.000514667	41	0.0000000E+000	8.18509e-06
2	1	0	0	0	1	232.85	1.42149	1.42173	0.00714494	2	0.00057021	41	0.0000000E+000	1.01582e-05
2	1	0	1	0	1	240.846	1.58141	1.58174	0.0164445	2	0.000647642	41	0.0000000E+000	2.60109e-05
2	1	0	1	0	1	247.958	1.67603	1.67648	0.0419167	2	0.00101817	41	0.0000000E+000	7.02727e-05
2	1	0	1	0	1	255.954	1.51611	1.51633	0.000751776	2	0.00108507	41	0.0000000E+000	1.13994e-06
2	1	0	0	0	1	263.95	1.35619	1.35662	-4.53169e-05	2	0.00108606	41	0.0000000E+000	-6.14776e-08
2	0	0	1	0	1	271.946	1.19628	1.19651	-0.000483122	2	0.00108306	41	0.0000000E+000	-5.7806e-07
2	0	0	1	0	1	279.942	1.03636	1.03653	-0.00128684	2	0.0010755	41	0.0000000E+000	-1.33385e-06
2	0	0	0	0	1	287.938	0.876441	0.876723	-0.00403179	2	0.00105598	41	0.0000000E+000	-3.53477e-06
2	0	0	1	0	1	295.933	0.716523	0.716731	-0.025006	2	0.000946694	41	0.0000000E+000	-1.79225e-05
2	0	0	1	0	1	303.929	0.556605	0.556888	-0.00167511	2	0.000888592	41	0.0000000E+000	-9.32848e-07
2	0	0	0	0	1	311.925	0.396689	0.396938	-0.00132317	2	0.000876768	41	0.0000000E+000	-5.25219e-07
2	1	0	1	0	1	319.921	0.236771	0.236967	-0.00466954	2	0.000852566	41	0.0000000E+000	-1.10653e-06
2	0	0	0	0	1	327.917	0.0768554	0.0770915	-0.00827019	2	0.000802888	41	0.0000000E+000	-6.37561e-07
2	1	0	0	0	0	335.108	0.0871821	0.0874042	0.00624982	2	0.000745024	41	0.0000000E+000	5.46261e-07
2	0	0	0	0	0	343.104	0.2471	0.247393	0.00337307	2	0.00078007	41	0.0000000E+000	8.34475e-07
2	0	0	1	0	0	351.099	0.407016	0.407283	0.000295049	2	0.000796889	41	0.0000000E+000	1.20168e-07
2	1	0	0	0	0	359.095	0.566934	0.567175	0.00049856	2	0.000800631	41	0.0000000E+000	2.82771e-07
2	1	0	0	0	0	367.091	0.726852	0.727035	0.00116216	2	0.000808252	41	0.0000000E+000	8.44931e-07
2	1	0	1	0	0	375.087	0.886768	0.886938	0.00365968	2	0.000824806	41	0.0000000E+000	3.24591e-06
2	1	0	0	0	0	386.06	0.981386	0.981701	0.0241695	3	0.000843339	41	0.0000000E+000	2.37273e-05
2	1	0	0	0	0	386.859	1.1413	1.1416	0.0411197	3	0.000872103	41	0.0000000E+000	4.69421e-05
2	1	0	0	0	0	387.659	1.3012	1.30146	0.0476472	3	0.000907663	41	0.0000000E+000	6.20107e-05
2	1	0	0	0	0	388.458	1.46113	1.46139	0.0530917	3	0.000947736	41	0.0000000E+000	7.75876e-05
2	1	0	0	0	0	389.258	1.62105	1.62146	0.116447	3	0.0010041	41	0.0000000E+000	0.000188815
2	1	0	1	0	0	390.135	1.60374	1.60399	0.0130857	3	0.00112325	41	0.0000000E+000	2.09892e-05
2	1	0	1	0	0	390.934	1.44382	1.44394	-0.00133838	3	0.00112526	41	0.0000000E+000	-1.93255e-06
2	0	0	1	0	0	391.734	1.2839	1.28389	-0.00396722	3	0.00112313	41	0.0000000E+000	-5.09348e-06
2	0	0	1	0	0	392.533	1.12398	1.12408	-0.00766684	3	0.00111866	41	0.0000000E+000	-8.61815e-06
2	0	0	1	0	0	393.333	0.964055	0.964263	-0.0173839	3	0.00110933	41	0.0000000E+000	-1.67626e-05
2	0	0	1	0	0	394.133	0.804138	0.804296	-0.069595	3	0.00108189	41	0.0000000E+000	-5.5975e-05
2	0	0	0	0	0	394.94	0.642562	0.64254	-0.0822492	3	0.000951592	41	0.0000000E+000	-5.28484e-05
2	0	0	0	0	0	395.74	0.482663	0.482704	-0.0195191	3	0.000921748	41	0.0000000E+000	-9.42196e-06
2	0	0	0	0	0	396.54	0.322736	0.322778	-0.0271009	3	0.000907118	41	0.0000000E+000	-8.74759e-06
2	0	0	0	0	0	397.339	0.162817	0.162839	-0.0519981	3	0.000874272	41	0.0000000E+000	-8.4673e-06
2	0	0	1	0	1	398.131	0.0157251	0.0144195	-0.184614	3	0.000794896	41	0.0000000E+000	-2.66204e-06
2	1	0	1	0	1	398.991	0.187804	0.188197	0.0387177	3	0.000859812	41	0.0000000E+000	7.28655e-06
2	1	0	1	0	1	399.791	0.347721	0.347928	0.0169147	3	0.000887452	41	0.0000000E+000	5.88511e-06
2	1	0	1	0	1	400.591	0.50765	0.508061	0.00491012	3	0.000892833	41	0.0000000E+000	2.49464e-06
2	1	0	0	0	1	401.39	0.667549	0.66793	0.00736384	3	0.000897564	41	0.0000000E+000	4.91853e-06
2	1	0	0	0	1	402.19	0.827466	0.827784	0.0231589	3	0.000906561	41	0.0000000E+000	1.91706e-05
2	1	0	0	0	1	402.926	0.974729	0.97511	0.0392294	4	0.000932682	41	0.0000000E+000	3.8253e-05
2	1	0	0	0	1	403.726	1.13465	1.13484	0.0389417	4	0.000963497	41	0.0000000E+000	4.41927e-05
2	1	0	0	0	1	404.525	1.29456	1.29477	0.0436902	4	0.000996526	41	0.0000000E+000	5.65689e-05
2	1	0	0	0	1	405.325	1.45448	1.45487	0.0472684	4	0.00103273	41	0.0000000E+000	6.87693e-05
2	1	0	0	0	1	406.124	1.61441	1.61476	0.105006	4	0.00108303	41	0.0000000E+000	0.00016956
2	1	0	1	0	1	407.006	1.60937	1.6096	0.0140505	4	0.00120601	41	0.0000000E+000	2.26156e-05
2	1	0	0	0	1	407.805	1.44948	1.44932	-0.00150958	4	0.0012079	41	0.0000000E+000	-2.18786e-06
2	0	0	0	0	1	408.605	1.28956	1.28967	-0.00408556	4	0.00120561	41	0.0000000E+000	-5.26901e-06
2	0	0	0	0	1	409.405	1.12964	1.12967	-0.00769483	4	0.00120106	41	0.0000000E+000	-8.69262e-06
2	0	0	0	0	1	410.204	0.96974	0.969675	-0.0170179	4	0.00119184	41	0.0000000E+000	-1.65018e-05
2	0	0	0	0	1	411.004	0.809814	0.810056	-0.0654404	4	0.00116559	41	0.0000000E+000	-5.30104e-05
2	0	0	0	0	1	411.937	0.623238	0.623237	-0.0593581	4	0.00102277	41	0.0000000E+000	-3.69942e-05
2	0	0	0	0	1	412.736	0.463321	0.463527	-0.0186137	4	0.000997845	41	0.0000000E+000	-8.62796e-06
2	0	0	0	0	1	413.536	0.303404	0.303446	-0.0376377	4	0.000980811	41	0.0000000E+000	-1.1421e-05
2	0	0	0	0	1	414.335	0.143497	0.14349	-0.0650337	4	0.000945408	41	0.0000000E+000	-9.33169e-06
2	1	0	1	0	0	415.191	0.0478698	0.048371	0.129234	4	0.000892791	41	0.0000000E+000	6.25117e-06
2	1	0	1	0	0	415.991	0.207787	0.207995	0.0389125	4	0.000941215	41	0.0000000E+000	8.09361e-06
2	1	0	1	0	0	416.79	0.367704	0.368053	0.0109547	4	0.000966297	41	0.0000000E+000	4.03191e-06
2	1	0	1	0	0	417.59	0.527621	0.527815	0.0051035	4	0.000970762	41	0.0000000E+000	2.6937e-06
2	1	0	1	0	0	418.39	0.68753	0.687811	0.00771694	4	0.00097572	41	0.0000000E+000	5.3078e-06
2	1	0	1	0	0	419.189	0.847449	0.84781	0.030799	4	0.000986695	41	0.0000000E+000	2.61117e-05
2	1	0	0	0	0	426.727	1.03136	1.03162	0.00963533	5	0.00102363	41	0.0000000E+000	9.94003e-06
2	1	0	0	0	0	433.124	1.3512	1.35145	0.0123514	5	0.00109593	41	0.0000000E+000	1.66924e-05
2	1	0	1	0	0	439.52	1.67102	1.67134	0.112065	5	0.00127298	41	0.0000000E+000	0.000187299
2	1	0	1	0	0	445.564	1.42649	1.42668	-7.5805e-05	5	0.00145173	41	0.0000000E+000	-1.08149e-07
2	0	0	0	0	0	451.961	1.10665	1.10678	-0.00193676	5	0.00144436	41	0.0000000E+000	-2.14356e-06
2	0	0	0	0	0	458.357	0.786819	0.787014	-0.0286484	5	0.00139357	41	0.0000000E+000	-2.25467e-05
2	0	0	1	0	0	464.754	0.466984	0.467115	-0.00307264	5	0.00124132	41	0.0000000E+000	-1.43528e-06
2	0	0	1	0	0	471.151	0.14715	0.147213	-0.0146242	5	0.00119466	41	0.0000000E+000	-2.15287e-06
2	1	0	1	0	1	476.973	0.164141	0.164425	0.0113967	5	0.00116309	41	0.0000000E+000	1.8739e-06
2	1	0	1	0	1	483.369	0.483976	0.484185	0.000805649	5	0.00119974	41	0.0000000E+000	3.90083e-07
2	0	0	0	0	1	489.766	0.803811	0.804117	0.00380954	5	0.00121216	41	0.0000000E+000	3.06331e-06
2	1	0	0	0	1	495.656	1.09833	1.09862	0.0107833	6	0.00126812	41	0.0000000E+000	1.18467e-05
2	1	0	1	0	1	502.053	1.41816	1.41835	0.0130568	6	0.00134688	41	0.0000000E+000	1.85191e-05
2	1	0	0	0	1	508.09	1.67969	1.67996	0.0759007	6	0.00164328	41	0.0000000E+000	0.00012751
2	1	0	1	0	1	514.486	1.35986	1.36004	-0.000402669	6	0.00168871	41	0.0000000E+000	-5.47648e-07
2	0	0	1	0	1	520.883	1.04002	1.04022	-0.00282732	6	0.00167837	41	0.0000000E+000	-2.94104e-06
2	0	0	0	0	1	527.28	0.720189	0.720411	-0.0692613	6	0.00155927	41	0.0000000E+000	-4.98966e-05
2	0	0	1	0	1	533.677	0.400354	0.400488	-0.00291432	6	0.00147444	41	0.0000000E+000	-1.16715e-06
2	0	0	1	0	1	540.073	0.0805195	0.0806106	-0.0173566	6	0.00140862	41	0.0000000E+000	-1.39912e-06
2	1	0	0	0	0	545.895	0.230776	0.231043	0.00971321	6	0.00141409	41	0.0000000E+000	2.24417e-06
2	1	0	1	0	0	552.292	0.550606	0.550636	0.000844022	6	0.00143881	41	0.0000000E+000	4.64749e-07
2	1	0	1	0	0	558.688	0.870446	0.870746	0.00908049	6	0.00145827	41	0.0000000E+000	7.90681e-06
2	1	0	0	0	0	559.276	0.899929	0.900809	0.0112674	6	0.0014639	41	0.0000000E+000	1.01498e-05