File: biologic_multiple_techniques_dataset/multiple_techniques_dataset_01_03_CP_C01.mpt
EC-Lab ASCII FILE
Nb header lines : 52

Chronopotentiometry

Run on channel : 1 (SN 5836)
User :
Electrode connection : standard
Ewe ctrl range : min = -10.00 V, max = 10.00 V
Ewe,I filtering : <None>
Safety Limits :
	Do not start on E overload
Channel : Grounded
Acquisition started on : 05/05/2022 15:55:02
Saved on :
	File : multiple_techniques_dataset_01_03_CP_C01.mpr
	Directory : C:\Users\Spectro Inlets\Desktop\Zilien Data Dir\multiple_techniques_dataset\
	Host : 192.168.1.105
Device : SP-200 (SN 0763)
Address : USB
EC-Lab for windows v11.27 (software)
Internet server v11.25 (firmware)
Command interpretor v11.27 (firmware)
Electrode material :
Initial state :
Electrolyte :
Comments :
Cable : standard
Electrode surface area : 0.001 cm²
Characteristic mass : 0.001 g
Equivalent Weight : 0.000 g/eq.
Density : 0.000 g/cm3
Cycle Definition : Charge/Discharge alternance
Ns                  0                   1                   2
Is                  0.000               2.500               -2.000
unit Is             µA                  µA                  µA
vs.                 <None>              <None>              <None>
ts (h:m:s)          0:00:10.0000        0:00:10.0000        0:00:10.0000
EM (V)              pass                pass                pass
dQM                 0.000               6.944               5.556
unit dQM            mA.h                nA.h                nA.h
record              <Ewe>               <Ewe>               <Ewe>
dEs (mV)            0.00                0.00                0.00
dts (s)             1.0000              1.0000              1.0000
E range min (V)     -10.000             -10.000             -10.000
E range max (V)     10.000              10.000              10.000
I Range             10 µA               10 µA               10 µA
Bandwidth           1                   1                   1
goto Ns'            0                   0                   0
nc cycles           0                   0                   0

mode	ox/red	error	control changes	Ns changes	counter inc.	Ns	time/s	control/mA	<Ewe>/V	I/mA	dQ/C	(Q-Qo)/C	half cycle	Q charge/discharge/mA.h	I Range	Rcmp/Ohm	Energy charge/W.h	Energy discharge/W.h	Capacitance charge/µF	Capacitance discharge/µF	Q discharge/mA.h	Q charge/mA.h	Capacity/mA.h	Efficiency/%	cycle number	P/W
1	1	0	1	0	0	0	560.276	0.0000000E+000	0.884839	1.27819e-06	7.12327e-10	7.12327e-10	0	1.97869e-10	42	0.0000000E+000	1.75082e-13	0.000000000000000E+000	0.000000000000000E+000	0.000000000000000E+000	0.000000000000000E+000	1.97869e-10	1.97869e-10	0.0000000E+000	0.000000000000000E+000	1.131e-09
1	1	0	1	0	0	0	561.276	0.0000000E+000	0.875803	3.7195e-06	1.61519e-09	1.61519e-09	0	4.48665e-10	42	0.0000000E+000	3.9473e-13	0.000000000000000E+000	0.178739	0.000000000000000E+000	0.000000000000000E+000	4.48665e-10	4.48665e-10	0.0000000E+000	0.000000000000000E+000	3.25755e-09
1	1	0	1	0	0	0	562.276	0.0000000E+000	0.871493	6.35154e-06	2.39311e-09	2.39311e-09	0	6.64752e-10	42	0.0000000E+000	5.83049e-13	0.000000000000000E+000	0.179305	0.000000000000000E+000	0.000000000000000E+000	6.64752e-10	6.64752e-10	0.0000000E+000	0.000000000000000E+000	5.53532e-09
1	1	0	1	0	0	0	563.276	0.0000000E+000	0.868804	-4.00205e-07	3.48919e-09	3.48919e-09	0	9.69219e-10	42	0.0000000E+000	8.47571e-13	0.000000000000000E+000	0.217594	0.000000000000000E+000	0.000000000000000E+000	9.69219e-10	9.69219e-10	0.0000000E+000	0.000000000000000E+000	-3.477e-10
1	1	0	1	0	0	0	564.276	0.0000000E+000	0.866928	1.73594e-06	4.51503e-09	4.51503e-09	0	1.25417e-09	42	0.0000000E+000	1.09461e-12	0.000000000000000E+000	0.252074	0.000000000000000E+000	0.000000000000000E+000	1.25417e-09	1.25417e-09	0.0000000E+000	0.000000000000000E+000	1.50493e-09
1	1	0	1	0	0	0	565.276	0.0000000E+000	0.865534	1.44002e-05	5.60124e-09	5.60124e-09	0	1.5559e-09	42	0.0000000E+000	1.35576e-12	0.000000000000000E+000	0.290137	0.000000000000000E+000	0.000000000000000E+000	1.5559e-09	1.5559e-09	0.0000000E+000	0.000000000000000E+000	1.24639e-08
1	1	0	1	0	0	0	566.276	0.0000000E+000	0.864436	-3.52813e-06	7.07014e-09	7.07014e-09	0	1.96393e-09	42	0.0000000E+000	1.70847e-12	0.000000000000000E+000	0.346524	0.000000000000000E+000	0.000000000000000E+000	1.96393e-09	1.96393e-09	0.0000000E+000	0.000000000000000E+000	-3.04985e-09
1	1	0	1	0	0	0	567.276	0.0000000E+000	0.863596	-4.71064e-06	8.19896e-09	8.19896e-09	0	2.27749e-09	42	0.0000000E+000	1.97926e-12	0.000000000000000E+000	0.385944	0.000000000000000E+000	0.000000000000000E+000	2.27749e-09	2.27749e-09	0.0000000E+000	0.000000000000000E+000	-4.06809e-09
1	1	0	1	0	0	0	568.276	0.0000000E+000	0.862891	8.86914e-06	9.49336e-09	9.49336e-09	0	2.63704e-09	42	0.0000000E+000	2.28952e-12	0.000000000000000E+000	0.432538	0.000000000000000E+000	0.000000000000000E+000	2.63704e-09	2.63704e-09	0.0000000E+000	0.000000000000000E+000	7.6531e-09
1	1	0	1	0	0	0	569.276	0.0000000E+000	0.86236	-7.6097e-06	1.03935e-08	1.03935e-08	0	2.88709e-09	42	0.0000000E+000	2.50515e-12	0.000000000000000E+000	0.462346	0.000000000000000E+000	0.000000000000000E+000	2.88709e-09	2.88709e-09	0.0000000E+000	0.000000000000000E+000	-6.5623e-09
1	1	0	1	0	0	0	569.378	0.0000000E+000	0.860821	0.00250213	1.09143e-08	1.09143e-08	0	3.03176e-09	42	0.0000000E+000	2.62968e-12	0.000000000000000E+000	0.454407	0.000000000000000E+000	0.000000000000000E+000	3.03176e-09	3.03176e-09	0.0000000E+000	0.000000000000000E+000	2.15389e-06
1	1	0	0	1	0	1	570.378	0.0025	0.879789	0.00249595	2.50123e-06	2.51215e-06	0	6.97819e-07	42	0.0000000E+000	6.13896e-10	0.000000000000000E+000	497.437	0.000000000000000E+000	0.000000000000000E+000	6.97819e-07	6.97819e-07	0.0000000E+000	0.000000000000000E+000	2.19591e-06
1	1	0	0	0	0	1	571.378	0.0025	0.901283	0.00249176	5.00262e-06	5.01354e-06	0	1.39265e-06	42	0.0000000E+000	1.24014e-09	0.000000000000000E+000	304.888	0.000000000000000E+000	0.000000000000000E+000	1.39265e-06	1.39265e-06	0.0000000E+000	0.000000000000000E+000	2.24578e-06
1	1	0	0	0	0	1	572.378	0.0025	0.915768	0.00250801	7.50379e-06	7.5147e-06	0	2.08742e-06	42	0.0000000E+000	1.87638e-09	0.000000000000000E+000	242.967	0.000000000000000E+000	0.000000000000000E+000	2.08742e-06	2.08742e-06	0.0000000E+000	0.000000000000000E+000	2.29675e-06
1	1	0	0	0	0	1	573.378	0.0025	0.928257	0.00250347	1.0005e-05	1.00159e-05	0	2.78219e-06	42	0.0000000E+000	2.52131e-09	0.000000000000000E+000	230.688	0.000000000000000E+000	0.000000000000000E+000	2.78219e-06	2.78219e-06	0.0000000E+000	0.000000000000000E+000	2.32386e-06
1	1	0	0	0	0	1	574.378	0.0025	0.93994	0.00249633	1.25062e-05	1.25171e-05	0	3.47697e-06	42	0.0000000E+000	3.17436e-09	0.000000000000000E+000	227.17	0.000000000000000E+000	0.000000000000000E+000	3.47697e-06	3.47697e-06	0.0000000E+000	0.000000000000000E+000	2.3464e-06
1	1	0	0	0	0	1	575.378	0.0025	0.95126	0.00249862	1.50073e-05	1.50182e-05	0	4.17173e-06	42	0.0000000E+000	3.83525e-09	0.000000000000000E+000	226.109	0.000000000000000E+000	0.000000000000000E+000	4.17173e-06	4.17173e-06	0.0000000E+000	0.000000000000000E+000	2.37684e-06
1	1	0	0	0	0	1	576.378	0.0025	0.9624	0.0025069	1.75082e-05	1.75191e-05	0	4.86643e-06	42	0.0000000E+000	4.50383e-09	0.000000000000000E+000	225.878	0.000000000000000E+000	0.000000000000000E+000	4.86643e-06	4.86643e-06	0.0000000E+000	0.000000000000000E+000	2.41264e-06
1	1	0	0	0	0	1	577.378	0.0025	0.973394	0.00250804	2.00092e-05	2.00201e-05	0	5.56113e-06	42	0.0000000E+000	5.18005e-09	0.000000000000000E+000	226.076	0.000000000000000E+000	0.000000000000000E+000	5.56113e-06	5.56113e-06	0.0000000E+000	0.000000000000000E+000	2.44132e-06
1	1	0	0	0	0	1	578.378	0.0025	0.984239	0.00251564	2.25107e-05	2.25216e-05	0	6.256e-06	42	0.0000000E+000	5.86397e-09	0.000000000000000E+000	226.576	0.000000000000000E+000	0.000000000000000E+000	6.256e-06	6.256e-06	0.0000000E+000	0.000000000000000E+000	2.47599e-06
1	1	0	0	0	0	1	579.378	0.0025	0.994887	-0.00199403	2.50113e-05	2.50222e-05	0	6.95061e-06	42	0.0000000E+000	6.55503e-09	0.000000000000000E+000	227.376	0.000000000000000E+000	0.000000000000000E+000	6.95061e-06	6.95061e-06	0.0000000E+000	0.000000000000000E+000	-1.98384e-06
1	0	0	1	1	0	2	580.378	-0.002	0.97396	-0.00199232	-1.99871e-06	2.30235e-05	1	-5.55196e-07	42	0.0000000E+000	6.55503e-09	-5.40739e-10	227.376	0.000000000000000E+000	5.55196e-07	0.000000000000000E+000	5.55196e-07	0.0000000E+000	0.000000000000000E+000	-1.94044e-06
1	0	0	1	0	0	2	581.378	-0.002	0.941112	-0.00199915	-3.99792e-06	2.10243e-05	1	-1.11053e-06	42	0.0000000E+000	6.55503e-09	-1.06337e-09	227.376	121.711	1.11053e-06	0.000000000000000E+000	1.11053e-06	0.0000000E+000	0.000000000000000E+000	-1.88142e-06
1	0	0	1	0	0	2	582.378	-0.002	0.918117	-0.00201322	-5.99738e-06	1.90248e-05	1	-1.66594e-06	42	0.0000000E+000	6.55503e-09	-1.5733e-09	227.376	107.398	1.66594e-06	0.000000000000000E+000	1.66594e-06	0.0000000E+000	0.000000000000000E+000	-1.84837e-06
1	0	0	1	0	0	2	583.378	-0.002	0.899639	-0.00200212	-7.99628e-06	1.70259e-05	1	-2.22119e-06	42	0.0000000E+000	6.55503e-09	-2.07282e-09	227.376	107.591	2.22119e-06	0.000000000000000E+000	2.22119e-06	0.0000000E+000	0.000000000000000E+000	-1.80119e-06
1	0	0	1	0	0	2	584.378	-0.002	0.884012	-0.00200258	-9.99516e-06	1.5027e-05	1	-2.77643e-06	42	0.0000000E+000	6.55503e-09	-2.56367e-09	227.376	111.122	2.77643e-06	0.000000000000000E+000	2.77643e-06	0.0000000E+000	0.000000000000000E+000	-1.7703e-06
1	0	0	1	0	0	2	585.378	-0.002	0.870405	-0.00199976	-1.19945e-05	1.30277e-05	1	-3.33181e-06	42	0.0000000E+000	6.55503e-09	-3.04707e-09	227.376	115.829	3.33181e-06	0.000000000000000E+000	3.33181e-06	0.0000000E+000	0.000000000000000E+000	-1.7406e-06
1	0	0	1	0	0	2	586.378	-0.002	0.85831	-0.00199846	-1.39935e-05	1.10287e-05	1	-3.88707e-06	42	0.0000000E+000	6.55503e-09	-3.52366e-09	227.376	120.999	3.88707e-06	0.000000000000000E+000	3.88707e-06	0.0000000E+000	0.000000000000000E+000	-1.7153e-06
1	0	0	1	0	0	2	587.378	-0.002	0.847436	-0.00200723	-1.59925e-05	9.02969e-06	1	-4.44236e-06	42	0.0000000E+000	6.55503e-09	-3.99423e-09	227.376	126.4	4.44236e-06	0.000000000000000E+000	4.44236e-06	0.0000000E+000	0.000000000000000E+000	-1.701e-06
1	0	0	1	0	0	2	588.378	-0.002	0.837444	-0.00199651	-1.79915e-05	7.03071e-06	1	-4.99764e-06	42	0.0000000E+000	6.55503e-09	-4.45924e-09	227.376	131.791	4.99764e-06	0.000000000000000E+000	4.99764e-06	0.0000000E+000	0.000000000000000E+000	-1.67197e-06
1	0	0	1	0	0	2	589.378	-0.002	0.827989	-0.00200014	-1.99906e-05	5.03159e-06	1	-5.55295e-06	42	0.0000000E+000	6.55503e-09	-4.91903e-09	227.376	136.949	5.55295e-06	0.000000000000000E+000	5.55295e-06	79.8915	0.000000000000000E+000	-1.65609e-06