File: biologic_multiple_techniques_dataset/multiple_techniques_dataset_01_01_PEIS_C01.mpt
EC-Lab ASCII FILE
Nb header lines : 62

Potentio Electrochemical Impedance Spectroscopy

Run on channel : 1 (SN 5836)
User :
Electrode connection : standard
Ewe ctrl range : min = -10.00 V, max = 10.00 V
Ewe,I filtering : <None>
Safety Limits :
	Do not start on E overload
Channel : Grounded
Acquisition started on : 05/05/2022 15:55:02
Saved on :
	File : multiple_techniques_dataset_01_01_PEIS_C01.mpr
	Directory : C:\Users\Spectro Inlets\Desktop\Zilien Data Dir\multiple_techniques_dataset\
	Host : 192.168.1.105
Device : SP-200 (SN 0763)
Address : USB
EC-Lab for windows v11.27 (software)
Internet server v11.25 (firmware)
Command interpretor v11.27 (firmware)
Electrode material :
Initial state :
Electrolyte :
Comments :
Cable : standard
Electrode surface area : 0.001 cm²
Characteristic mass : 0.001 g
Equivalent Weight : 0.000 g/eq.
Density : 0.000 g/cm3
Cycle Definition : Charge/Discharge alternance
Mode                Single sine
E (V)               1.0000
vs.                 Ref
tE (h:m:s)          0:00:0.0000
record              0
dI                  0.000
unit dI             mA
dt (s)              0.000
fi                  1.000
unit fi             MHz
ff                  10.000
unit ff             Hz
Nd                  6
Points              per decade
spacing             Logarithmic
Va (mV)             10.0
pw                  0.10
Na                  4
corr                0
E range min (V)     -10.000
E range max (V)     10.000
I Range             1 A
Bandwidth           8
nc cycles           0
goto Ns'            0
nr cycles           0
inc. cycle          0

freq/Hz	Re(Z)/Ohm	-Im(Z)/Ohm	|Z|/Ohm	Phase(Z)/deg	time/s	<Ewe>/V	<I>/mA	Cs/µF	Cp/µF	cycle number	I Range	|Ewe|/V	|I|/A	(Q-Qo)/mA.h	Re(Y)/Ohm-1	Im(Y)/Ohm-1	|Y|/Ohm-1	Phase(Y)/deg	<I>/mA	dq/mA.h
1.00002e+06	1091.75	981.998	1468.41	-41.9704	1.31147	1.00042	-0.0236899	0.000162069	7.24812e-05	1	37	0.00896515	6.10533e-06	-4.63994e-06	0.000506321	0.000455421	0.000681006	41.9704	0.000000000000000E+000	-4.63994e-06
681293	1458.24	1120.76	1839.17	-37.5448	1.97546	1.00042	-0.0250687	0.000208437	7.74021e-05	1	37	0.010338	5.62101e-06	-9.06262e-06	0.000431105	0.000331334	0.000543722	37.5448	-0.023979	-4.42268e-06
464157	2196.56	1050.04	2434.64	-25.5495	2.63848	1.0004	-0.0297453	0.000326551	6.07421e-05	1	37	0.0106103	4.35807e-06	-1.4498e-05	0.000370574	0.000177147	0.000410739	25.5495	-0.0295125	-5.43539e-06
316230	1458.22	-1811.29	2325.34	51.1633	3.30246	1.00041	-0.0310495	-0.000277862	-0.000168591	1	37	0.0104972	4.51428e-06	-2.03743e-05	0.000269683	-0.000334978	0.000430046	-51.1633	-0.0318603	-5.87631e-06
215447	1354.92	-407.888	1414.98	16.7541	3.96646	1.00042	-0.0319997	-0.00181109	-0.000150494	1	37	0.0103993	7.34942e-06	-2.67375e-05	0.000676724	-0.000203723	0.000706724	-16.7541	-0.0344989	-6.36315e-06
146777	730.327	-2320.4	2432.62	72.529	4.63048	1.00041	-0.0376638	-0.000467305	-0.000425185	1	37	0.0103837	4.26854e-06	-3.34599e-05	0.000123416	-0.000392116	0.00041108	-72.529	-0.0364463	-6.72246e-06
100004	861.673	-2098.06	2268.11	67.6721	5.29446	1.00042	-0.0471101	-0.000758552	-0.000649071	1	37	0.0101593	4.47918e-06	-4.18116e-05	0.000167499	-0.000407839	0.000440895	-67.6721	-0.0452817	-8.35167e-06
68132	1132.4	-1049.7	1544.08	42.8295	5.82847	1.00041	-0.0463462	-0.00222538	-0.00102847	1	37	0.0108443	7.02314e-06	-4.87588e-05	0.000474961	-0.000440273	0.000647633	-42.8295	-0.0468339	-6.94722e-06
46420.4	361.735	-818.611	894.973	66.1599	6.49247	1.00043	-0.0507806	-0.00418826	-0.00350404	1	37	0.0101059	1.12919e-05	-5.7877e-05	0.000451617	-0.00102202	0.00111735	-66.1599	-0.0494362	-9.1182e-06
31621.1	137.517	-623.118	638.112	77.5548	7.02647	1.00043	-0.0519544	-0.00807742	-0.00770228	1	37	0.0101988	1.59829e-05	-6.52743e-05	0.000337724	-0.0015303	0.00156712	-77.5548	-0.0498695	-7.39726e-06
21544.7	144.193	-564.074	582.212	75.6606	7.56047	1.0004	-0.0529977	-0.0130962	-0.0122929	1	37	0.0101749	1.74762e-05	-7.28647e-05	0.000425385	-0.00166408	0.00171759	-75.6606	-0.051171	-7.59042e-06
14678.6	60.6734	-394.238	398.879	81.2508	8.09447	1.00042	-0.0507619	-0.0275028	-0.0268665	1	37	0.00996331	2.49783e-05	-8.04102e-05	0.000381342	-0.00247785	0.00250702	-81.2508	-0.050869	-7.54552e-06
10002.2	46.1849	-256.454	260.579	79.791	8.62847	1.00043	-0.0525506	-0.0620461	-0.060097	1	37	0.00947685	3.63684e-05	-8.78761e-05	0.000680174	-0.00377685	0.0038376	-79.791	-0.0503311	-7.46587e-06
6963.31	31.8847	-183.327	186.079	80.1337	9.31592	1.00039	-0.0460481	-0.124674	-0.121014	1	37	0.0107563	5.78048e-05	-9.64754e-05	0.000920843	-0.00529457	0.00537405	-80.1337	-0.0450322	-8.59926e-06
4641.49	15.6374	-126.229	127.193	82.9381	10.2087	1.00042	-0.0474268	-0.271647	-0.267541	1	37	0.0108033	8.49356e-05	-0.00010808	0.000966574	-0.0078024	0.00786204	-82.9381	-0.0467938	-1.16044e-05
3163.04	13.9278	-82.6298	83.7954	80.4324	11.0996	1.0004	-0.0398437	-0.608946	-0.592123	1	37	0.0107787	0.000128631	-0.00011859	0.00198354	-0.0117678	0.0119338	-80.4324	-0.0424738	-1.05107e-05
2154.31	9.76773	-55.4361	56.29	80.0072	11.9908	1.0004	-0.0366763	-1.33266	-1.29253	1	37	0.0107089	0.000190244	-0.000127964	0.0030827	-0.0174956	0.0177651	-80.0072	-0.0378607	-9.37323e-06
1467.65	9.24356	-36.538	37.6891	75.8029	12.8821	1.00041	-0.0397505	-2.96792	-2.7894	1	37	0.0105021	0.000278652	-0.000138156	0.00650741	-0.0257225	0.0265329	-75.8029	-0.0411668	-1.01918e-05
999.682	8.91837	-22.5843	24.2814	68.4513	13.7728	1.00046	-0.0385954	-7.04939	-6.09841	1	37	0.0100883	0.000415472	-0.000147743	0.0151264	-0.0383052	0.0411837	-68.4513	-0.0387505	-9.5879e-06
681.09	9.01177	-12.3305	15.2726	53.8387	14.6634	1.00053	-0.036993	-18.9512	-12.3529	1	37	0.0095904	0.000627948	-0.000157319	0.0386353	-0.0528632	0.0654767	-53.8387	-0.0387044	-9.57511e-06
464.257	9.20182	-4.59394	10.2848	26.5303	15.5541	1.00039	-0.0491037	-74.6236	-14.8886	1	37	0.00992746	0.000965252	-0.000168289	0.086992	-0.0434301	0.0972306	-26.5303	-0.0443442	-1.09707e-05
316.316	8.48421	1.77286	8.66746	-11.8027	16.4409	1.00135	-0.0385767	283.808	11.8738	1	37	0.00969997	0.00111913	-0.000179118	0.112935	0.0235989	0.115374	11.8027	-0.0439557	-1.08288e-05
215.483	5.41654	8.85316	10.3787	-58.5409	19.0663	1.00074	-0.0381482	83.4275	60.7044	1	37	0.0108093	0.00104149	-0.000206125	0.0502847	0.0821888	0.0963512	58.5409	-0.0370337	-2.70073e-05
146.738	-2.12929	21.7141	21.8182	-95.6005	21.0224	1.00027	-0.0417814	49.9502	49.4745	1	37	0.00946379	0.000433757	-0.000227216	-0.00447298	0.0456145	0.0458333	95.6005	-0.0388143	-2.10903e-05
99.9682	-11.0964	44.9483	46.2977	-103.867	22.1308	1.00028	-0.0411293	35.4198	33.3851	1	37	0.00933129	0.00020155	-0.000240681	-0.00517684	0.0209698	0.0215993	103.867	-0.0437345	-1.34654e-05
68.1464	-18.2669	81.587	83.607	-102.62	23.2652	1.0003	-0.0444644	28.6257	27.2592	1	37	0.00983239	0.000117602	-0.000252916	-0.00261325	0.0116718	0.0119607	102.62	-0.038827	-1.22348e-05
46.4109	-15.8006	138.398	139.297	-96.5131	24.1306	1.00032	-0.0399555	24.7782	24.4594	1	37	0.00934374	6.70776e-05	-0.000262814	-0.000814303	0.00713255	0.00717888	96.5131	-0.041173	-9.89807e-06
31.6296	-26.8544	221.398	223.021	-96.9159	24.9804	1.0003	-0.0339933	22.7276	22.398	1	37	0.00915138	4.10338e-05	-0.00027149	-0.000539915	0.00445126	0.00448389	96.9159	-0.0367558	-8.67639e-06
21.5517	8.8343	298.467	298.597	-88.3046	25.8133	1.0003	-0.0356702	24.7425	24.7208	1	37	0.00908735	3.04335e-05	-0.000280457	9.90835e-05	0.00334752	0.00334899	88.3046	-0.0387573	-8.96697e-06
14.6759	12.107	446.31	446.474	-88.4461	26.7222	1.00028	-0.0340865	24.2984	24.2806	1	37	0.00903366	2.02333e-05	-0.000289921	6.07356e-05	0.00223895	0.00223977	88.4461	-0.0374849	-9.4632e-06
9.99682	-35.7036	490.432	491.73	-94.1638	27.6128	1.00032	-0.0368999	32.4623	32.2912	1	37	0.00910758	1.85215e-05	-0.000299612	-0.000147658	0.00202827	0.00203364	94.1638	-0.0391743	-9.69172e-06