File: dataset_with_loop/dataset_with_loop_01_03_CP_DUSB0_C01.mpt
EC-Lab ASCII FILE
Nb header lines : 60

Chronopotentiometry

Run on channel : 1 (SN 5836)
User :
Electrode connection : standard
Ewe ctrl range : min = -5.00 V, max = 5.00 V
Ewe,I filtering : 50 kHz
Safety Limits :
	Do not start on E overload
Channel : Grounded
Acquisition started on : 06/24/2022 13:13:57
Technique started on : 06/24/2022 13:14:48
Saved on :
	File : 2022-06-24 13_13_40 5_EC_measurements_with_loop_01_03_CP_DUSB0_C01.mpr
	Directory : C:\Users\Spectro Inlets Lab_1\Dropbox (Spectro Inlets)\Development\Data\Kenneth reduced data\2022-06-24 13_13_40 5_EC_measurements_with_loop\
	Host : 192.168.50.150
Device : SP-200 (SN 0763)
Address : USB
EC-Lab for windows v11.27 (software)
Internet server v11.25 (firmware)
Command interpretor v11.27 (firmware)
Electrode material :
Initial state :
Electrolyte :
Comments :
Cable : standard
Electrode surface area : 0.001 cm²
Characteristic mass : 0.001 g
Equivalent Weight : 0.000 g/eq.
Density : 0.000 g/cm3
Record Ece
Text export
   Mode : Standard
   Time format : Elapsed
Cycle Definition : Charge/Discharge alternance
Is                  0.000
unit Is             µA
vs.                 <None>
ts (h:m:s)          0:00:10.0000
EM (V)              pass
dQM                 0.000
unit dQM            mA.h
record              Ewe
dEs (mV)            10.00
dts (s)             0.5000
E range min (V)     -5.000
E range max (V)     5.000
I Range             100 µA
Bandwidth           8
goto Ns'            0
nc cycles           0

Number of loops : 2
Loop 0 from point number 0 to 21
Loop 1 from point number 22 to 43

mode	ox/red	error	control changes	Ns changes	counter inc.	Ns	time/s	control/mA	Ewe/V	I/mA	dQ/C	(Q-Qo)/C	half cycle	Q charge/discharge/mA.h	I Range	Ece/V	Q discharge/mA.h	Q charge/mA.h	Capacity/mA.h	Efficiency/%	cycle number	P/W	Ewe-Ece/V
1	1	0	0	0	0	0	51.0968	0.0000000E+000	0.816255	2.73549e-05	0.0000000E+000	0.0000000E+000	0	0.000000000000000E+000	41	1.07589	0.000000000000000E+000	0.000000000000000E+000	0.000000000000000E+000	0.0000000E+000	0.000000000000000E+000	2.23286e-08	-0.259633
1	1	0	0	0	0	0	51.283	0.0000000E+000	0.826287	3.42259e-05	6.31766e-09	6.31766e-09	0	1.75491e-09	41	1.07441	0.000000000000000E+000	1.75491e-09	1.75491e-09	0.0000000E+000	0.000000000000000E+000	2.82804e-08	-0.248123
1	1	0	0	0	0	0	51.783	0.0000000E+000	0.829385	3.0474e-05	2.15737e-08	2.15737e-08	0	5.9927e-09	41	1.07393	0.000000000000000E+000	5.9927e-09	5.9927e-09	0.0000000E+000	0.000000000000000E+000	2.52747e-08	-0.244544
1	1	0	0	0	0	0	52.283	0.0000000E+000	0.830822	3.07489e-05	3.68296e-08	3.68296e-08	0	1.02304e-08	41	1.07362	0.000000000000000E+000	1.02304e-08	1.02304e-08	0.0000000E+000	0.000000000000000E+000	2.55468e-08	-0.242798
1	1	0	0	0	0	0	52.783	0.0000000E+000	0.831868	3.11764e-05	5.20329e-08	5.20329e-08	0	1.44536e-08	41	1.07324	0.000000000000000E+000	1.44536e-08	1.44536e-08	0.0000000E+000	0.000000000000000E+000	2.59347e-08	-0.241374
1	1	0	0	0	0	0	53.283	0.0000000E+000	0.832785	2.91838e-05	6.71265e-08	6.71265e-08	0	1.86463e-08	41	1.07273	0.000000000000000E+000	1.86463e-08	1.86463e-08	0.0000000E+000	0.000000000000000E+000	2.43038e-08	-0.239941
1	1	0	0	0	0	0	53.783	0.0000000E+000	0.833698	3.0745e-05	8.23572e-08	8.23572e-08	0	2.2877e-08	41	1.07245	0.000000000000000E+000	2.2877e-08	2.2877e-08	0.0000000E+000	0.000000000000000E+000	2.56321e-08	-0.238753
1	1	0	0	0	0	0	54.283	0.0000000E+000	0.834592	3.16955e-05	9.77839e-08	9.77839e-08	0	2.71622e-08	41	1.07201	0.000000000000000E+000	2.71622e-08	2.71622e-08	0.0000000E+000	0.000000000000000E+000	2.64528e-08	-0.237413
1	1	0	0	0	0	0	54.783	0.0000000E+000	0.835437	3.08557e-05	1.13241e-07	1.13241e-07	0	3.14558e-08	41	1.07166	0.000000000000000E+000	3.14558e-08	3.14558e-08	0.0000000E+000	0.000000000000000E+000	2.5778e-08	-0.236225
1	1	0	0	0	0	0	55.283	0.0000000E+000	0.83617	3.05771e-05	1.28748e-07	1.28748e-07	0	3.57634e-08	41	1.07128	0.000000000000000E+000	3.57634e-08	3.57634e-08	0.0000000E+000	0.000000000000000E+000	2.55676e-08	-0.235113
1	1	0	0	0	0	0	55.783	0.0000000E+000	0.837015	3.0955e-05	1.44208e-07	1.44208e-07	0	4.00578e-08	41	1.07111	0.000000000000000E+000	4.00578e-08	4.00578e-08	0.0000000E+000	0.000000000000000E+000	2.59098e-08	-0.234097
1	1	0	0	0	0	0	56.283	0.0000000E+000	0.837882	3.01457e-05	1.59988e-07	1.59988e-07	0	4.44411e-08	41	1.07042	0.000000000000000E+000	4.44411e-08	4.44411e-08	0.0000000E+000	0.000000000000000E+000	2.52586e-08	-0.232543
1	1	0	0	0	0	0	56.783	0.0000000E+000	0.838604	3.1352e-05	1.75805e-07	1.75805e-07	0	4.88347e-08	41	1.07032	0.000000000000000E+000	4.88347e-08	4.88347e-08	0.0000000E+000	0.000000000000000E+000	2.62919e-08	-0.231718
1	1	0	0	0	0	0	57.283	0.0000000E+000	0.839322	3.2062e-05	1.9194e-07	1.9194e-07	0	5.33166e-08	41	1.07001	0.000000000000000E+000	5.33166e-08	5.33166e-08	0.0000000E+000	0.000000000000000E+000	2.69103e-08	-0.23069
1	1	0	0	0	0	0	57.783	0.0000000E+000	0.840052	3.23215e-05	2.07967e-07	2.07967e-07	0	5.77685e-08	41	1.06963	0.000000000000000E+000	5.77685e-08	5.77685e-08	0.0000000E+000	0.000000000000000E+000	2.71518e-08	-0.229583
1	1	0	0	0	0	0	58.283	0.0000000E+000	0.840717	3.20811e-05	2.24027e-07	2.24027e-07	0	6.22298e-08	41	1.06926	0.000000000000000E+000	6.22298e-08	6.22298e-08	0.0000000E+000	0.000000000000000E+000	2.69711e-08	-0.22854
1	1	0	0	0	0	0	58.783	0.0000000E+000	0.84137	3.15428e-05	2.39919e-07	2.39919e-07	0	6.66443e-08	41	1.0686	0.000000000000000E+000	6.66443e-08	6.66443e-08	0.0000000E+000	0.000000000000000E+000	2.65392e-08	-0.227234
1	1	0	0	0	0	0	59.283	0.0000000E+000	0.842008	3.08596e-05	2.55848e-07	2.55848e-07	0	7.10689e-08	41	1.0686	0.000000000000000E+000	7.10689e-08	7.10689e-08	0.0000000E+000	0.000000000000000E+000	2.5984e-08	-0.226596
1	1	0	0	0	0	0	59.783	0.0000000E+000	0.842573	3.34858e-05	2.71812e-07	2.71812e-07	0	7.55035e-08	41	1.06809	0.000000000000000E+000	7.55035e-08	7.55035e-08	0.0000000E+000	0.000000000000000E+000	2.82142e-08	-0.225515
1	1	0	0	0	0	0	60.283	0.0000000E+000	0.843173	3.31117e-05	2.8798e-07	2.8798e-07	0	7.99945e-08	41	1.06764	0.000000000000000E+000	7.99945e-08	7.99945e-08	0.0000000E+000	0.000000000000000E+000	2.79189e-08	-0.224468
1	1	0	0	0	0	0	60.783	0.0000000E+000	0.843742	3.12565e-05	3.03897e-07	3.03897e-07	0	8.44159e-08	41	1.06781	0.000000000000000E+000	8.44159e-08	8.44159e-08	0.0000000E+000	0.000000000000000E+000	2.63725e-08	-0.224071
1	1	0	0	0	0	0	61.0966	0.0000000E+000	0.844113	3.23139e-05	3.14058e-07	3.14058e-07	0	8.72384e-08	41	1.06747	0.000000000000000E+000	8.72384e-08	8.72384e-08	0.0000000E+000	0.000000000000000E+000	2.72766e-08	-0.223357
1	1	0	0	0	0	0	102.248	0.0000000E+000	0.810583	3.2699e-05	0.0000000E+000	0.0000000E+000	0	0.000000000000000E+000	41	1.0775	0.000000000000000E+000	0.000000000000000E+000	0.000000000000000E+000	0.0000000E+000	0.000000000000000E+000	2.65053e-08	-0.26692
1	1	0	0	0	0	0	102.366	0.0000000E+000	0.820583	3.01109e-05	3.94596e-09	3.94596e-09	0	1.0961e-09	41	1.07658	0.000000000000000E+000	1.0961e-09	1.0961e-09	0.0000000E+000	0.000000000000000E+000	2.47085e-08	-0.255992
1	1	0	0	0	0	0	102.866	0.0000000E+000	0.82553	3.03519e-05	1.89245e-08	1.89245e-08	0	5.2568e-09	41	1.07596	0.000000000000000E+000	5.2568e-09	5.2568e-09	0.0000000E+000	0.000000000000000E+000	2.50564e-08	-0.250426
1	1	0	0	0	0	0	103.366	0.0000000E+000	0.827456	3.12413e-05	3.44134e-08	3.44134e-08	0	9.55929e-09	41	1.07493	0.000000000000000E+000	9.55929e-09	9.55929e-09	0.0000000E+000	0.000000000000000E+000	2.58508e-08	-0.24747
1	1	0	0	0	0	0	103.866	0.0000000E+000	0.828892	3.21689e-05	5.01767e-08	5.01767e-08	0	1.3938e-08	41	1.07517	0.000000000000000E+000	1.3938e-08	1.3938e-08	0.0000000E+000	0.000000000000000E+000	2.66645e-08	-0.246274
1	1	0	0	0	0	0	104.366	0.0000000E+000	0.830023	3.39935e-05	6.61236e-08	6.61236e-08	0	1.83677e-08	41	1.07448	0.000000000000000E+000	1.83677e-08	1.83677e-08	0.0000000E+000	0.000000000000000E+000	2.82154e-08	-0.244456
1	1	0	0	0	0	0	104.866	0.0000000E+000	0.8312	3.05962e-05	8.20343e-08	8.20343e-08	0	2.27873e-08	41	1.07414	0.000000000000000E+000	2.27873e-08	2.27873e-08	0.0000000E+000	0.000000000000000E+000	2.54315e-08	-0.242935
1	1	0	0	0	0	0	105.366	0.0000000E+000	0.832315	3.26956e-05	9.82012e-08	9.82012e-08	0	2.72781e-08	41	1.07386	0.000000000000000E+000	2.72781e-08	2.72781e-08	0.0000000E+000	0.000000000000000E+000	2.72131e-08	-0.241545
1	1	0	0	0	0	0	105.866	0.0000000E+000	0.833267	3.26765e-05	1.1462e-07	1.1462e-07	0	3.1839e-08	41	1.07359	0.000000000000000E+000	3.1839e-08	3.1839e-08	0.0000000E+000	0.000000000000000E+000	2.72283e-08	-0.240319
1	1	0	0	0	0	0	106.366	0.0000000E+000	0.834168	3.31193e-05	1.30874e-07	1.30874e-07	0	3.63538e-08	41	1.0729	0.000000000000000E+000	3.63538e-08	3.63538e-08	0.0000000E+000	0.000000000000000E+000	2.76271e-08	-0.23873
1	1	0	0	0	0	0	106.866	0.0000000E+000	0.835123	3.22948e-05	1.47033e-07	1.47033e-07	0	4.08424e-08	41	1.07266	0.000000000000000E+000	4.08424e-08	4.08424e-08	0.0000000E+000	0.000000000000000E+000	2.69702e-08	-0.237535
1	1	0	0	0	0	0	107.366	0.0000000E+000	0.835968	3.22528e-05	1.63513e-07	1.63513e-07	0	4.54202e-08	41	1.07228	0.000000000000000E+000	4.54202e-08	4.54202e-08	0.0000000E+000	0.000000000000000E+000	2.69623e-08	-0.236312
1	1	0	0	0	0	0	107.866	0.0000000E+000	0.836888	3.15085e-05	1.80071e-07	1.80071e-07	0	5.00198e-08	41	1.07201	0.000000000000000E+000	5.00198e-08	5.00198e-08	0.0000000E+000	0.000000000000000E+000	2.63691e-08	-0.235117
1	1	0	0	0	0	0	108.366	0.0000000E+000	0.83766	3.17719e-05	1.96396e-07	1.96396e-07	0	5.45544e-08	41	1.07142	0.000000000000000E+000	5.45544e-08	5.45544e-08	0.0000000E+000	0.000000000000000E+000	2.6614e-08	-0.233761
1	1	0	0	0	0	0	108.866	0.0000000E+000	0.838459	3.27453e-05	2.12702e-07	2.12702e-07	0	5.90838e-08	41	1.07125	0.000000000000000E+000	5.90838e-08	5.90838e-08	0.0000000E+000	0.000000000000000E+000	2.74555e-08	-0.232791
1	1	0	0	0	0	0	109.366	0.0000000E+000	0.839211	3.39171e-05	2.29044e-07	2.29044e-07	0	6.36234e-08	41	1.07101	0.000000000000000E+000	6.36234e-08	6.36234e-08	0.0000000E+000	0.000000000000000E+000	2.84636e-08	-0.231797
1	1	0	0	0	0	0	109.866	0.0000000E+000	0.839857	3.1413e-05	2.45255e-07	2.45255e-07	0	6.81264e-08	41	1.07067	0.000000000000000E+000	6.81264e-08	6.81264e-08	0.0000000E+000	0.000000000000000E+000	2.63825e-08	-0.230808
1	1	0	0	0	0	0	110.366	0.0000000E+000	0.840579	3.4066e-05	2.61722e-07	2.61722e-07	0	7.27007e-08	41	1.06994	0.000000000000000E+000	7.27007e-08	7.27007e-08	0.0000000E+000	0.000000000000000E+000	2.86352e-08	-0.229365
1	1	0	0	0	0	0	110.866	0.0000000E+000	0.84132	3.38446e-05	2.78269e-07	2.78269e-07	0	7.72969e-08	41	1.07012	0.000000000000000E+000	7.72969e-08	7.72969e-08	0.0000000E+000	0.000000000000000E+000	2.84742e-08	-0.228795
1	1	0	0	0	0	0	111.366	0.0000000E+000	0.841909	3.3127e-05	2.94793e-07	2.94793e-07	0	8.18869e-08	41	1.0696	0.000000000000000E+000	8.18869e-08	8.18869e-08	0.0000000E+000	0.000000000000000E+000	2.78899e-08	-0.227691
1	1	0	0	0	0	0	111.866	0.0000000E+000	0.842516	3.08977e-05	3.11055e-07	3.11055e-07	0	8.64041e-08	41	1.0695	0.000000000000000E+000	8.64041e-08	8.64041e-08	0.0000000E+000	0.000000000000000E+000	2.60318e-08	-0.226981
1	1	0	0	0	0	0	112.248	0.0000000E+000	0.842917	3.24361e-05	3.23466e-07	3.23466e-07	0	8.98516e-08	41	1.06884	0.000000000000000E+000	8.98516e-08	8.98516e-08	0.0000000E+000	0.000000000000000E+000	2.73409e-08	-0.225927