File: dataset_with_loop/dataset_with_loop_01_05_PEIS_DUSB0_C01.mpt
EC-Lab ASCII FILE
Nb header lines : 70

Potentio Electrochemical Impedance Spectroscopy

Run on channel : 1 (SN 5836)
User :
Electrode connection : standard
Ewe ctrl range : min = -5.00 V, max = 5.00 V
Ewe,I filtering : 50 kHz
Safety Limits :
	Do not start on E overload
Channel : Grounded
Acquisition started on : 06/24/2022 13:13:57
Technique started on : 06/24/2022 13:15:51
Saved on :
	File : 2022-06-24 13_13_40 5_EC_measurements_with_loop_01_05_PEIS_DUSB0_C01.mpr
	Directory : C:\Users\Spectro Inlets Lab_1\Dropbox (Spectro Inlets)\Development\Data\Kenneth reduced data\2022-06-24 13_13_40 5_EC_measurements_with_loop\
	Host : 192.168.50.150
Device : SP-200 (SN 0763)
Address : USB
EC-Lab for windows v11.27 (software)
Internet server v11.25 (firmware)
Command interpretor v11.27 (firmware)
Electrode material :
Initial state :
Electrolyte :
Comments :
Cable : standard
Electrode surface area : 0.001 cm²
Characteristic mass : 0.001 g
Equivalent Weight : 0.000 g/eq.
Density : 0.000 g/cm3
Record Ece
Text export
   Mode : Standard
   Time format : Elapsed
Cycle Definition : Charge/Discharge alternance
Mode                Single sine
E (V)               0.0000
vs.                 Eoc
tE (h:m:s)          0:00:0.0000
record              0
dI                  0.000
unit dI             mA
dt (s)              0.000
fi                  200.000
unit fi             kHz
ff                  100.000
unit ff             Hz
Nd                  6
Points              per decade
spacing             Logarithmic
Va (mV)             10.0
pw                  0.10
Na                  10
corr                0
E range min (V)     -5.000
E range max (V)     5.000
I Range             Auto
Bandwidth           1
nc cycles           0
goto Ns'            0
nr cycles           0
inc. cycle          0

Number of loops : 1
Loop 0 from point number 0 to 15

freq/Hz	Re(Z)/Ohm	-Im(Z)/Ohm	|Z|/Ohm	Phase(Z)/deg	time/s	<Ewe>/V	<I>/mA	Cs/µF	Cp/µF	cycle number	I Range	|Ewe|/V	|I|/A	(Q-Qo)/mA.h	<Ece>/V	|Ece|/V	Phase(Zce)/deg	|Zce|/Ohm	Re(Zce)/Ohm	-Im(Zce)/Ohm	Phase(Zwe-ce)/deg	|Zwe-ce|/Ohm	Re(Zwe-ce)/Ohm	-Im(Zwe-ce)/Ohm	Re(Y)/Ohm-1	Im(Y)/Ohm-1	|Y|/Ohm-1	Phase(Y)/deg	<I>/mA	dq/mA.h
199998	1406.02	-1066.98	1765.03	37.1936	114.964	0.842907	5.95634e-05	-0.000745827	-0.000272549	1	40	0.00976533	5.53266e-06	4.3184e-09	1.05402	0.0526566	-0.76403	9517.41	9516.57	126.909	4.91913	10963	10922.6	-940.07	0.000451322	-0.000342492	0.000566562	-37.1936	0.000000000000000E+000	4.3184e-09
134056	1004.01	-1083.38	1477.07	47.1775	116.163	0.842881	7.119e-05	-0.00109586	-0.000589537	1	40	0.00973497	6.59072e-06	2.80284e-08	0.0000000E+000	0.0675843	-2.96243	10254.5	10240.8	529.962	2.81756	11258.4	11244.8	-553.416	0.000460187	-0.000496566	0.000677015	-47.1775	7.119e-05	2.371e-08
89853	623.539	-974.279	1156.73	57.3807	117.361	0.842893	9.32536e-05	-0.00181804	-0.00128976	1	40	0.00976973	8.446e-06	5.90607e-08	0.0000000E+000	0.0921914	-3.45573	10915.4	10895.5	657.951	1.57302	11523.4	11519.1	-316.329	0.000466016	-0.000728149	0.000864507	-57.3807	9.32536e-05	3.10323e-08
60226.8	345.68	-778.438	851.74	66.0555	118.559	0.842915	9.48007e-05	-0.00339474	-0.00283557	1	40	0.00978365	1.14867e-05	9.06085e-08	0.0000000E+000	0.131091	-3.05826	11412.5	11396.2	608.871	0.827367	11743.1	11741.9	-169.568	0.000476497	-0.00107303	0.00117407	-66.0555	9.48007e-05	3.15479e-08
40370.8	174.34	-575.944	601.753	73.1588	119.758	0.842929	9.5912e-05	-0.00684499	-0.00627043	1	40	0.009778	1.62492e-05	1.22553e-07	0.0000000E+000	0.190601	-2.34116	11729.9	11720.1	479.161	0.466198	11894.8	11894.4	-96.7834	0.000481461	-0.00159054	0.00166181	-73.1588	9.5912e-05	3.19446e-08
27056.1	86.1007	-402.531	411.636	77.9265	120.957	0.8429	0.000106312	-0.0146135	-0.0139742	1	40	0.00967469	2.3503e-05	1.5796e-07	0.0000000E+000	0.279248	-1.72818	11881.4	11876	358.316	0.211777	11962.1	11962.1	-44.2145	0.000508135	-0.00237559	0.00242933	-77.9265	0.000106312	3.54068e-08
18139.5	60.4609	-336.828	342.211	79.8237	122.425	0.842893	0.000920239	-0.0260488	-0.0252357	1	39	0.00951143	2.7794e-05	5.33213e-07	0.0000000E+000	0.325669	-2.25443	11717.2	11708.2	460.921	-0.604128	11769.3	11768.6	124.093	0.00051628	-0.0028762	0.00292217	-79.8237	0.000920239	3.75253e-07
12154.8	33.196	-227.781	230.187	81.7083	123.623	0.842921	0.00086415	-0.057485	-0.0562894	1	39	0.00912822	3.96557e-05	8.20792e-07	0.0000000E+000	0.465866	-1.58565	11747.8	11743.3	325.076	-0.473357	11776.9	11776.5	97.2951	0.000626506	-0.00429889	0.0043443	-81.7083	0.00086415	2.87578e-07
8146.52	21.6742	-155.003	156.511	82.0399	124.821	0.842839	0.00104657	-0.12604	-0.123623	1	39	0.00992523	6.34155e-05	1.16907e-06	0.0000000E+000	0.75175	-1.04931	11854.4	11852.4	217.087	-0.299569	11874.2	11874	62.0837	0.000884816	-0.00632776	0.00638933	-82.0399	0.00104657	3.48277e-07
5465.04	15.5852	-104.793	105.946	81.5408	126.018	0.842838	0.000958824	-0.277903	-0.271889	1	39	0.00995313	9.39453e-05	1.48788e-06	0.0000000E+000	1.1137	-0.894344	11854.7	11853.3	185.036	-0.387356	11869.1	11868.9	80.2424	0.00138849	-0.00933609	0.00943878	-81.5408	0.000958824	3.1881e-07
3820.61	12.3701	-73.7062	74.737	80.4729	127.485	0.842897	0.000943347	-0.565176	-0.549693	1	39	0.00995848	0.000133247	1.87216e-06	0.0000000E+000	1.58182	-0.70626	11871.3	11870.4	146.329	-0.350164	11883	11882.8	72.6228	0.00221463	-0.0131957	0.0133802	-80.4729	0.000943347	3.84277e-07
2454.21	9.76237	-46.6047	47.6162	78.1692	129.607	0.842895	0.0011195	-1.39148	-1.33299	1	39	0.00982987	0.00020644	2.53199e-06	0.0000000E+000	2.14877	-0.561116	10408.7	10408.2	101.934	-0.304293	10418.1	10418	55.3293	0.00430572	-0.0205551	0.0210013	-78.1692	0.0011195	6.59838e-07
1645.53	8.52912	-29.6929	30.8936	73.9736	131.727	0.842831	0.00111575	-3.25733	-3.00906	1	39	0.00949813	0.000307446	3.18902e-06	0.0000000E+000	2.76145	-0.504751	8981.89	8981.54	79.1255	-0.315042	8990.21	8990.07	49.4326	0.00893648	-0.0311111	0.0323692	-73.9736	0.00111575	6.57022e-07
1102.53	7.23077	-18.163	19.5494	68.2923	134.51	0.842853	0.00845921	-7.94772	-6.86043	1	38	0.00951478	0.000486705	9.7296e-06	0.0000000E+000	3.03616	-0.584793	6238.19	6237.87	63.6694	-0.417492	6245.26	6245.1	45.5064	0.0189199	-0.0475249	0.0511525	-68.2923	0.00845921	6.54058e-06
739.291	3.99059	-9.36587	10.1806	66.9222	136.843	0.842786	0.00996623	-22.9856	-19.4539	1	38	0.00985748	0.000968262	1.61877e-05	0.0000000E+000	3.15	-0.579039	3253.25	3253.09	32.8772	-0.413585	3257.16	3257.08	23.5114	0.0385028	-0.0903654	0.0982262	-66.9222	0.00996623	6.45813e-06
495.476	1.92068	-2.51094	3.1613	52.5867	139.802	0.920052	0.0128967	-127.927	-80.7055	1	38	0.00461518	0.0014599	2.67867e-05	0.0000000E+000	3.18539	-0.914869	2181.92	2181.64	34.8383	-0.848194	2183.8	2183.56	32.3274	0.192187	-0.251249	0.316326	-52.5867	0.0128967	1.0599e-05