File: zilien_version_2/2022-09-19 11_29_04 test-2/2022-09-19 11_29_04 test-22_01_02_CP_C01.mpt
EC-Lab ASCII FILE
Nb header lines : 58

Chronopotentiometry

Run on channel : 1 (SN 15565)
User :
Electrode connection : standard
Potential control : Ewe
Ewe ctrl range : min = -10,00 V, max = 10,00 V
Ewe,I filtering : <None>
Safety Limits :
	Do not start on E overload
Channel : Grounded
Acquisition started on : 09/19/2022 11:29:15.126
Technique started on : 09/19/2022 11:29:23.537
Loaded Setting File :  NONE
Saved on :
	File : 2022-09-19 11_29_04 test-22_01_02_CP_C01.mpr
	Directory : C:\Users\Spectro\Spectro Inlets Dropbox\08 Development\Data\eclab-integration\2022-09-19 11_29_04 test-22\
	Host : 192.168.56.1
Device : SP-300 (SN 1920)
Address : USB
EC-Lab for windows v11.43 (software)
Internet server v11.40 (firmware)
Command interpretor v11.43 (firmware)
Electrode material :
Initial state :
Electrolyte :
Comments :
Cable : standard
Electrode surface area : 0,001 cm²
Characteristic mass : 0,001 g
Equivalent Weight : 0,000 g/eq.
Density : 0,000 g/cm3
Volume (V) : 0,001 cm³
Text export
   Mode : Standard
   Time format : Elapsed
Cycle Definition : Charge/Discharge alternance
Is                  20,000
unit Is             µA
vs.                 <None>
ts (h:m:s)          0:00:10,0000
EM (V)              0,200
dQM                 55,556
unit dQM            nA.h
record              <Ewe>
dEs (mV)            0,00
dts (s)             0,5000
E range min (V)     -10,000
E range max (V)     10,000
I Range             100 µA
Bandwidth           8
goto Ns'            0
nc cycles           0

mode	ox/red	error	control changes	Ns changes	counter inc.	Ns	time/s	control/mA	<Ewe>/V	I/mA	dQ/C	(Q-Qo)/C	half cycle	Q charge/discharge/mA.h	I Range	Q discharge/mA.h	Q charge/mA.h	Capacity/mA.h	Efficiency/%	cycle number	P/W
1	1	0	0	0	0	0	8,411199787515216E+000	2,0000001E-002	9,9256642E-002	2,0011803E-002	7,9653273E-006	7,9653273E-006	0	2,212590872206622E-006	41	0,000000000000000E+000	2,212590872206622E-006	2,212590872206622E-006	0,0000000E+000	0,000000000000000E+000	1,9863044E-006
1	1	0	0	0	0	0	8,911199774884153E+000	2,0000001E-002	1,0128228E-001	2,0014094E-002	1,7972583E-005	1,7972583E-005	0	4,992384071254896E-006	41	0,000000000000000E+000	4,992384071254896E-006	4,992384071254896E-006	0,0000000E+000	0,000000000000000E+000	2,0270732E-006
1	1	0	0	0	0	0	9,411199762253091E+000	2,0000001E-002	1,0128377E-001	2,0020587E-002	2,7979626E-005	2,7979626E-005	0	7,772118170538711E-006	41	0,000000000000000E+000	7,772118170538711E-006	7,772118170538711E-006	0,0000000E+000	0,000000000000000E+000	2,0277607E-006
1	1	0	0	0	0	0	9,911199749622028E+000	2,0000001E-002	1,0128112E-001	2,0011803E-002	3,7986360E-005	3,7986360E-005	0	1,055176703373177E-005	41	0,000000000000000E+000	1,055176703373177E-005	1,055176703373177E-005	0,0000000E+000	0,000000000000000E+000	2,0268178E-006
1	1	0	0	0	0	0	1,041119973699097E+001	2,0000001E-002	1,0127911E-001	2,0014096E-002	4,7993148E-005	4,7993148E-005	0	1,333142987255835E-005	41	0,000000000000000E+000	1,333142987255835E-005	1,333142987255835E-005	0,0000000E+000	0,000000000000000E+000	2,0270099E-006
1	1	0	0	0	0	0	1,091119972435990E+001	2,0000001E-002	1,0128137E-001	2,0015242E-002	5,8000012E-005	5,8000012E-005	0	1,611111469039072E-005	41	0,000000000000000E+000	1,611111469039072E-005	1,611111469039072E-005	0,0000000E+000	0,000000000000000E+000	2,0271711E-006
1	1	0	0	0	0	0	1,141119971172884E+001	2,0000001E-002	1,0127948E-001	2,0016767E-002	6,8006804E-005	6,8006804E-005	0	1,889077885035012E-005	41	0,000000000000000E+000	1,889077885035012E-005	1,889077885035012E-005	0,0000000E+000	0,000000000000000E+000	2,0272878E-006
1	1	0	0	0	0	0	1,191119969909778E+001	2,0000001E-002	1,0128523E-001	2,0007603E-002	7,8013625E-005	7,8013625E-005	0	2,167045140576859E-005	41	0,000000000000000E+000	2,167045140576859E-005	2,167045140576859E-005	0,0000000E+000	0,000000000000000E+000	2,0264747E-006
1	1	0	0	0	0	0	1,241119968646672E+001	2,0000001E-002	1,0128803E-001	2,0008367E-002	8,8020417E-005	8,8020417E-005	0	2,445011621775727E-005	41	0,000000000000000E+000	2,445011621775727E-005	2,445011621775727E-005	0,0000000E+000	0,000000000000000E+000	2,0266079E-006
1	1	0	0	0	0	0	1,291119967383565E+001	2,0000001E-002	1,0128809E-001	2,0009894E-002	9,8027114E-005	9,8027114E-005	0	2,722975436763631E-005	41	0,000000000000000E+000	2,722975436763631E-005	2,722975436763631E-005	0,0000000E+000	0,000000000000000E+000	2,0267639E-006
1	1	0	0	0	0	0	1,341119966120459E+001	2,0000001E-002	0,0000000E+000	2,0016385E-002	1,0803399E-004	1,0803399E-004	0	3,000943976019820E-005	41	0,000000000000000E+000	3,000943976019820E-005	3,000943976019820E-005	0,0000000E+000	0,000000000000000E+000	2,0273812E-006
1	1	0	0	0	0	0	1,391119964857353E+001	2,0000001E-002	0,0000000E+000	2,0004930E-002	1,1804081E-004	1,1804081E-004	0	3,278911248925659E-005	41	0,000000000000000E+000	3,278911248925659E-005	3,278911248925659E-005	0,0000000E+000	0,000000000000000E+000	2,0261846E-006
1	1	0	0	0	0	0	1,441119963594247E+001	2,0000001E-002	0,0000000E+000	2,0012567E-002	1,2804728E-004	1,2804728E-004	0	3,556868691049102E-005	41	0,000000000000000E+000	3,556868691049102E-005	3,556868691049102E-005	0,0000000E+000	0,000000000000000E+000	2,0269979E-006
1	1	0	0	0	0	0	1,491119962331140E+001	2,0000001E-002	0,0000000E+000	2,0016767E-002	1,3805405E-004	1,3805405E-004	0	3,834834879595372E-005	41	0,000000000000000E+000	3,834834879595372E-005	3,834834879595372E-005	0,0000000E+000	0,000000000000000E+000	2,0274144E-006
1	1	0	0	0	0	0	1,541119961068034E+001	2,0000001E-002	0,0000000E+000	2,0010658E-002	1,4806075E-004	1,4806075E-004	0	4,112798539631897E-005	41	0,000000000000000E+000	4,112798539631897E-005	4,112798539631897E-005	0,0000000E+000	0,000000000000000E+000	2,0268105E-006
1	1	0	0	0	0	0	1,591119959804928E+001	2,0000001E-002	0,0000000E+000	2,0016767E-002	1,5806779E-004	1,5806779E-004	0	4,390772063937038E-005	41	0,000000000000000E+000	4,390772063937038E-005	4,390772063937038E-005	0,0000000E+000	0,000000000000000E+000	2,0274115E-006
1	1	0	0	0	0	0	1,641119958541822E+001	2,0000001E-002	0,0000000E+000	2,0011421E-002	1,6807474E-004	1,6807474E-004	0	4,668742779518167E-005	41	0,000000000000000E+000	4,668742779518167E-005	4,668742779518167E-005	0,0000000E+000	0,000000000000000E+000	2,0268117E-006
1	1	0	0	0	0	0	1,691119957278715E+001	2,0000001E-002	0,0000000E+000	2,0017149E-002	1,7808173E-004	1,7808173E-004	0	4,946714729981290E-005	41	0,000000000000000E+000	4,946714729981290E-005	4,946714729981290E-005	0,0000000E+000	0,000000000000000E+000	2,0273476E-006
1	1	0	0	0	0	0	1,741119956015609E+001	2,0000001E-002	0,0000000E+000	2,0020204E-002	1,8808903E-004	1,8808903E-004	0	5,224695531144324E-005	41	0,000000000000000E+000	5,224695531144324E-005	5,224695531144324E-005	0,0000000E+000	0,000000000000000E+000	2,0277439E-006
1	1	0	0	0	0	0	1,791119954752503E+001	2,0000001E-002	0,0000000E+000	2,0015622E-002	1,9809663E-004	1,9809663E-004	0	5,502684077423894E-005	41	0,000000000000000E+000	5,502684077423894E-005	5,502684077423894E-005	0,0000000E+000	0,000000000000000E+000	2,0272630E-006
1	1	0	0	0	0	0	1,801319954494829E+001	2,0000001E-002	0,0000000E+000	2,0016767E-002	2,0013817E-004	2,0013817E-004	0	5,559393482624242E-005	41	0,000000000000000E+000	5,559393482624242E-005	5,559393482624242E-005	0,0000000E+000	0,000000000000000E+000	2,0272917E-006