File: zilien_version_2/2022-09-19 11_29_04 test-2/2022-09-19 11_29_04 test-22_02_02_CP_C01.mpt
EC-Lab ASCII FILE
Nb header lines : 58

Chronopotentiometry

Run on channel : 1 (SN 15565)
User :
Electrode connection : standard
Potential control : Ewe
Ewe ctrl range : min = -10,00 V, max = 10,00 V
Ewe,I filtering : <None>
Safety Limits :
	Do not start on E overload
Channel : Grounded
Acquisition started on : 09/19/2022 11:29:40.780
Technique started on : 09/19/2022 11:29:49.191
Loaded Setting File :  NONE
Saved on :
	File : 2022-09-19 11_29_04 test-22_02_02_CP_C01.mpr
	Directory : C:\Users\Spectro\Spectro Inlets Dropbox\08 Development\Data\eclab-integration\2022-09-19 11_29_04 test-22\
	Host : 192.168.56.1
Device : SP-300 (SN 1920)
Address : USB
EC-Lab for windows v11.43 (software)
Internet server v11.40 (firmware)
Command interpretor v11.43 (firmware)
Electrode material :
Initial state :
Electrolyte :
Comments :
Cable : standard
Electrode surface area : 0,001 cm²
Characteristic mass : 0,001 g
Equivalent Weight : 0,000 g/eq.
Density : 0,000 g/cm3
Volume (V) : 0,001 cm³
Text export
   Mode : Standard
   Time format : Elapsed
Cycle Definition : Charge/Discharge alternance
Is                  20,000
unit Is             µA
vs.                 <None>
ts (h:m:s)          0:00:10,0000
EM (V)              0,200
dQM                 55,556
unit dQM            nA.h
record              <Ewe>
dEs (mV)            0,00
dts (s)             0,5000
E range min (V)     -10,000
E range max (V)     10,000
I Range             100 µA
Bandwidth           8
goto Ns'            0
nc cycles           0

mode	ox/red	error	control changes	Ns changes	counter inc.	Ns	time/s	control/mA	<Ewe>/V	I/mA	dQ/C	(Q-Qo)/C	half cycle	Q charge/discharge/mA.h	I Range	Q discharge/mA.h	Q charge/mA.h	Capacity/mA.h	Efficiency/%	cycle number	P/W
1	1	0	1	0	0	0	8,410999787520268E+000	2,0000001E-002	9,9261053E-002	2,0012949E-002	7,9662059E-006	7,9662059E-006	0	2,212835045220951E-006	41	0,000000000000000E+000	2,212835045220951E-006	2,212835045220951E-006	0,0000000E+000	0,000000000000000E+000	1,9865063E-006
1	1	0	1	0	0	0	8,910999774889206E+000	2,0000001E-002	1,0127976E-001	2,0019058E-002	1,7974437E-005	1,7974437E-005	0	4,992898813241885E-006	41	0,000000000000000E+000	4,992898813241885E-006	4,992898813241885E-006	0,0000000E+000	0,000000000000000E+000	2,0275254E-006
1	1	0	1	0	0	0	9,410999762258143E+000	2,0000001E-002	1,0127741E-001	2,0014096E-002	2,7982698E-005	2,7982698E-005	0	7,772971934638918E-006	41	0,000000000000000E+000	7,772971934638918E-006	7,772971934638918E-006	0,0000000E+000	0,000000000000000E+000	2,0269758E-006
1	1	0	1	0	0	0	9,910999749627081E+000	2,0000001E-002	1,0128263E-001	2,0013714E-002	3,7990823E-005	3,7990823E-005	0	1,055300667975098E-005	41	0,000000000000000E+000	1,055300667975098E-005	1,055300667975098E-005	0,0000000E+000	0,000000000000000E+000	2,0270415E-006
1	1	0	1	0	0	0	1,041099973699602E+001	2,0000001E-002	1,0128473E-001	2,0025933E-002	4,7999038E-005	4,7999038E-005	0	1,333306560789545E-005	41	0,000000000000000E+000	1,333306560789545E-005	1,333306560789545E-005	0,0000000E+000	0,000000000000000E+000	2,0283214E-006
1	1	0	1	0	0	0	1,091099972436496E+001	2,0000001E-002	1,0128494E-001	2,0014096E-002	5,8007256E-005	5,8007256E-005	0	1,611312685151481E-005	41	0,000000000000000E+000	1,611312685151481E-005	1,611312685151481E-005	0,0000000E+000	0,000000000000000E+000	2,0271266E-006
1	1	0	1	0	0	0	1,141099971173389E+001	2,0000001E-002	1,0128584E-001	2,0013712E-002	6,8015579E-005	6,8015579E-005	0	1,889321664917386E-005	41	0,000000000000000E+000	1,889321664917386E-005	1,889321664917386E-005	0,0000000E+000	0,000000000000000E+000	2,0271057E-006
1	1	0	1	0	0	0	1,191099969910283E+001	2,0000001E-002	1,0128658E-001	2,0016385E-002	7,8023622E-005	7,8023622E-005	0	2,167322928748197E-005	41	0,000000000000000E+000	2,167322928748197E-005	2,167322928748197E-005	0,0000000E+000	0,000000000000000E+000	2,0273910E-006
1	1	0	1	0	0	0	1,241099968647177E+001	2,0000001E-002	0,0000000E+000	2,0019822E-002	8,8031440E-005	8,8031440E-005	0	2,445317701074398E-005	41	0,000000000000000E+000	2,445317701074398E-005	2,445317701074398E-005	0,0000000E+000	0,000000000000000E+000	2,0277184E-006
1	1	0	1	0	0	0	1,291099967384071E+001	2,0000001E-002	0,0000000E+000	2,0011803E-002	9,8039294E-005	9,8039294E-005	0	2,723313708251549E-005	41	0,000000000000000E+000	2,723313708251549E-005	2,723313708251549E-005	0,0000000E+000	0,000000000000000E+000	2,0269918E-006
1	1	0	1	0	0	0	1,341099966120964E+001	2,0000001E-002	0,0000000E+000	2,0009512E-002	1,0804711E-004	1,0804711E-004	0	3,001308752430810E-005	41	0,000000000000000E+000	3,001308752430810E-005	3,001308752430810E-005	0,0000000E+000	0,000000000000000E+000	2,0267544E-006
1	1	0	1	0	0	0	1,391099964857858E+001	2,0000001E-002	0,0000000E+000	2,0019440E-002	1,1805481E-004	1,1805481E-004	0	3,279300442596691E-005	41	0,000000000000000E+000	3,279300442596691E-005	3,279300442596691E-005	0,0000000E+000	0,000000000000000E+000	2,0277464E-006
1	1	0	1	0	0	0	1,441099963594752E+001	2,0000001E-002	0,0000000E+000	2,0007985E-002	1,2806266E-004	1,2806266E-004	0	3,557295993953530E-005	41	0,000000000000000E+000	3,557295993953530E-005	3,557295993953530E-005	0,0000000E+000	0,000000000000000E+000	2,0266384E-006
1	1	0	1	0	0	0	1,491099962331646E+001	2,0000001E-002	0,0000000E+000	2,0008365E-002	1,3807032E-004	1,3807032E-004	0	3,835286672009776E-005	41	0,000000000000000E+000	3,835286672009776E-005	3,835286672009776E-005	0,0000000E+000	0,000000000000000E+000	2,0266364E-006
1	1	0	1	0	0	0	1,541099961068539E+001	2,0000001E-002	0,0000000E+000	2,0010658E-002	1,4807784E-004	1,4807784E-004	0	4,113273312958579E-005	41	0,000000000000000E+000	4,113273312958579E-005	4,113273312958579E-005	0,0000000E+000	0,000000000000000E+000	2,0267921E-006
1	1	0	1	0	0	0	1,591099959805433E+001	2,0000001E-002	0,0000000E+000	2,0006839E-002	1,5808534E-004	1,5808534E-004	0	4,391259591757423E-005	41	0,000000000000000E+000	4,391259591757423E-005	4,391259591757423E-005	0,0000000E+000	0,000000000000000E+000	2,0263094E-006
1	1	0	1	0	0	0	1,641099958542327E+001	2,0000001E-002	0,0000000E+000	2,0018294E-002	1,6809269E-004	1,6809269E-004	0	4,669241364165727E-005	41	0,000000000000000E+000	4,669241364165727E-005	4,669241364165727E-005	0,0000000E+000	0,000000000000000E+000	2,0274363E-006
1	1	0	1	0	0	0	1,691099957279221E+001	2,0000001E-002	0,0000000E+000	2,0012567E-002	1,7810000E-004	1,7810000E-004	0	4,947222408776482E-005	41	0,000000000000000E+000	4,947222408776482E-005	4,947222408776482E-005	0,0000000E+000	0,000000000000000E+000	2,0268071E-006
1	1	0	1	0	0	0	1,741099956016114E+001	2,0000001E-002	0,0000000E+000	2,0016767E-002	1,8810721E-004	1,8810721E-004	0	5,225200271461573E-005	41	0,000000000000000E+000	5,225200271461573E-005	5,225200271461573E-005	0,0000000E+000	0,000000000000000E+000	2,0271480E-006
1	1	0	1	0	0	0	1,791099954753008E+001	2,0000001E-002	0,0000000E+000	2,0012567E-002	1,9811445E-004	1,9811445E-004	0	5,503178857649780E-005	41	0,000000000000000E+000	5,503178857649780E-005	5,503178857649780E-005	0,0000000E+000	0,000000000000000E+000	2,0268424E-006
1	1	0	1	0	0	0	1,801299954495335E+001	2,0000001E-002	0,0000000E+000	2,0013714E-002	2,0015588E-004	2,0015588E-004	0	5,559885318225457E-005	41	0,000000000000000E+000	5,559885318225457E-005	5,559885318225457E-005	0,0000000E+000	0,000000000000000E+000	2,0270741E-006