File: zilien_version_2/2022-09-19 11_29_04 test-2/2022-09-19 11_29_04 test-22_02_01_CV_C01.mpt
EC-Lab ASCII FILE
Nb header lines : 63

Cyclic Voltammetry

Run on channel : 1 (SN 15565)
User :
Electrode connection : standard
Potential control : Ewe
Ewe ctrl range : min = -10,00 V, max = 10,00 V
Ewe,I filtering : <None>
Safety Limits :
	Do not start on E overload
Channel : Grounded
Acquisition started on : 09/19/2022 11:29:40.780
Technique started on : 09/19/2022 11:29:40.780
Loaded Setting File :  NONE
Saved on :
	File : 2022-09-19 11_29_04 test-22_02_01_CV_C01.mpr
	Directory : C:\Users\Spectro\Spectro Inlets Dropbox\08 Development\Data\eclab-integration\2022-09-19 11_29_04 test-22\
	Host : 192.168.56.1
Device : SP-300 (SN 1920)
Address : USB
EC-Lab for windows v11.43 (software)
Internet server v11.40 (firmware)
Command interpretor v11.43 (firmware)
Electrode material :
Initial state :
Electrolyte :
Comments :
Cable : standard
Electrode surface area : 0,001 cm²
Characteristic mass : 0,001 g
Equivalent Weight : 0,000 g/eq.
Density : 0,000 g/cm3
Volume (V) : 0,001 cm³
Text export
   Mode : Standard
   Time format : Elapsed
Cycle Definition : Charge/Discharge alternance
Ei (V)              0,000
vs.                 Eoc
dE/dt               500,000
dE/dt unit          mV/s
E1 (V)              1,000
vs.                 Ref
Step percent        50
N                   10
E range min (V)     -10,000
E range max (V)     10,000
I Range             Auto
I Range min         Unset
I Range max         Unset
I Range init        Unset
Bandwidth           8
E2 (V)              -1,000
vs.                 Ref
nc cycles           0
Reverse Scan        1
Ef (V)              0,000
vs.                 Eoc

mode	ox/red	error	control changes	counter inc.	time/s	control/V	Ewe/V	<I>/mA	cycle number	(Q-Qo)/C	I Range	P/W
2	1	0	1	0	0,000000000000000E+000	4,4586502E-002	4,4918813E-002	9,430281817913055E-003	1,000000000000000E+000	0,0000000E+000	42	4,2359707E-007
2	1	0	1	0	1,403999964531977E-001	1,1475039E-001	1,1503055E-001	2,328248153280588E-002	1,000000000000000E+000	2,2627999E-006	41	2,6781966E-006
2	1	0	1	0	2,535999935935251E-001	1,7135462E-001	1,7161730E-001	3,447490666148967E-002	1,000000000000000E+000	5,5410819E-006	41	5,9164904E-006
2	1	0	1	0	3,667999907338526E-001	2,2795884E-001	2,2823127E-001	4,566095246943103E-002	1,000000000000000E+000	1,0086068E-005	41	1,0421257E-005
2	1	0	1	0	4,801999878691277E-001	2,8466299E-001	2,8490695E-001	5,687010483622224E-002	1,000000000000000E+000	1,5908736E-005	41	1,6202688E-005
2	1	0	1	0	5,933999850094551E-001	3,4126723E-001	3,4152049E-001	6,806293757011506E-002	1,000000000000000E+000	2,2988635E-005	41	2,3244887E-005
2	1	0	1	0	7,065999821497826E-001	3,9787143E-001	3,9815831E-001	7,925029814844806E-002	1,000000000000000E+000	3,1335374E-005	41	3,1554166E-005
2	1	0	1	0	8,199999792850576E-001	4,5457557E-001	4,5483583E-001	9,046614509037054E-002	1,000000000000000E+000	4,0966639E-005	41	4,1147243E-005
2	1	0	1	0	9,331999764253851E-001	5,1114655E-001	5,1139420E-001	1,016365572480331E-001	1,000000000000000E+000	5,1848634E-005	41	5,1976345E-005
2	1	0	1	0	1,076499972805323E+000	5,8280963E-001	5,8305126E-001	1,158793057387310E-001	1,000000000000000E+000	6,7401648E-005	40	6,7563575E-005
2	1	0	1	0	1,189799969943124E+000	6,3944721E-001	6,3968056E-001	1,270758810511329E-001	1,000000000000000E+000	8,1175553E-005	40	8,1287973E-005
2	1	0	1	0	1,302999967083451E+000	6,9605142E-001	6,9631004E-001	1,383048146381046E-001	1,000000000000000E+000	9,6205600E-005	40	9,6303032E-005
2	1	0	1	0	1,416399964218726E+000	7,5275552E-001	7,5304198E-001	1,494991905696230E-001	1,000000000000000E+000	1,1253297E-004	40	1,1257917E-004
2	1	0	1	0	1,529599961359054E+000	8,0935973E-001	8,0962098E-001	1,606558745474711E-001	1,000000000000000E+000	1,3009745E-004	40	1,3007036E-004
2	1	0	1	0	1,642799958499381E+000	8,6596406E-001	8,6624414E-001	1,718795820042329E-001	1,000000000000000E+000	1,4892936E-004	40	1,4888968E-004
2	1	0	1	0	1,756199955634656E+000	9,2266816E-001	9,2296046E-001	1,830987261200789E-001	1,000000000000000E+000	1,6906450E-004	40	1,6899289E-004
2	1	0	1	0	1,869399952774984E+000	9,7927237E-001	9,7949082E-001	1,942595006723429E-001	1,000000000000000E+000	1,9043019E-004	40	1,9027540E-004
2	1	0	1	0	1,974599950117408E+000	9,6827799E-001	9,6851450E-001	1,910102387055921E-001	1,000000000000000E+000	2,1094494E-004	40	1,8499618E-004
2	1	0	1	0	2,087999947252683E+000	9,1160727E-001	9,1191208E-001	1,798173087125181E-001	1,000000000000000E+000	2,3196130E-004	40	1,6397757E-004
2	1	0	1	0	2,201199944393011E+000	8,5500300E-001	8,5523915E-001	1,686272084266722E-001	1,000000000000000E+000	2,5167328E-004	40	1,4421660E-004
2	1	0	1	0	2,314399941533338E+000	7,9839879E-001	7,9868239E-001	1,574299346073532E-001	1,000000000000000E+000	2,7011745E-004	40	1,2573652E-004
2	1	0	1	0	2,427799938668613E+000	7,4169463E-001	7,4198765E-001	1,462257837333412E-001	1,000000000000000E+000	2,8732436E-004	40	1,0849773E-004
2	1	0	1	0	2,540999935808941E+000	6,8509042E-001	6,8536401E-001	1,350310466892555E-001	1,000000000000000E+000	3,0323488E-004	40	9,2545422E-005
2	1	0	1	0	2,654199932949268E+000	6,2848616E-001	6,2872708E-001	1,238381148083136E-001	1,000000000000000E+000	3,1787754E-004	40	7,7860379E-005
2	1	0	1	0	2,767599930084543E+000	5,7178199E-001	5,7207596E-001	1,126178922092851E-001	1,000000000000000E+000	3,3127581E-004	40	6,4425993E-005
2	1	0	1	0	2,880799927224871E+000	5,1517779E-001	5,1543331E-001	1,014388515012494E-001	1,000000000000000E+000	3,4338332E-004	40	5,2284962E-005
2	1	0	1	0	2,994199924360146E+000	4,5850685E-001	4,5874551E-001	9,024281349071916E-002	1,000000000000000E+000	3,5424251E-004	40	4,1398485E-005
2	1	0	1	0	3,107399921500473E+000	4,0190268E-001	4,0220237E-001	7,907818385283483E-002	1,000000000000000E+000	3,6381473E-004	40	3,1805434E-005
2	1	0	1	0	3,220599918640801E+000	3,4529850E-001	3,4554392E-001	6,786856205047465E-002	1,000000000000000E+000	3,7212021E-004	40	2,3451568E-005
2	1	0	1	0	3,333999915776076E+000	2,8859431E-001	2,8883275E-001	5,664122064287472E-002	1,000000000000000E+000	3,7917061E-004	40	1,6359840E-005
2	1	0	1	0	3,447199912916403E+000	2,3199008E-001	2,3225221E-001	4,545867646326485E-002	1,000000000000000E+000	3,8494117E-004	40	1,0557878E-005
2	1	0	1	0	3,590399909298867E+000	1,6039360E-001	1,6066341E-001	3,122157582596036E-002	1,000000000000000E+000	3,9048464E-004	41	5,0161648E-006
2	1	0	1	0	3,703799906434142E+000	1,0368943E-001	1,0394976E-001	2,000146913802995E-002	1,000000000000000E+000	3,9338006E-004	41	2,0791479E-006
2	1	0	1	0	3,816999903574470E+000	4,7085203E-002	4,7338266E-002	8,819176935988562E-003	1,000000000000000E+000	3,9500318E-004	41	4,1748456E-007
2	0	0	1	0	3,930199900714797E+000	-9,5190192E-003	-9,3224207E-003	-2,380649335615686E-003	1,000000000000000E+000	3,9535889E-004	41	2,2193415E-008
2	0	0	1	0	4,043599897850072E+000	-6,6212110E-002	-6,5998770E-002	-1,359518759879091E-002	1,000000000000000E+000	3,9444445E-004	41	8,9726564E-007
2	0	0	1	0	4,156799894990399E+000	-1,2279415E-001	-1,2257289E-001	-2,476487960472396E-002	1,000000000000000E+000	3,9226434E-004	41	3,0355029E-006
2	0	0	1	0	4,270199892125675E+000	-1,7949833E-001	-1,7931499E-001	-3,597668486763711E-002	1,000000000000000E+000	3,8881035E-004	41	6,4511587E-006
2	0	0	1	0	4,383399889266002E+000	-2,3610260E-001	-2,3590627E-001	-4,717368455797755E-002	1,000000000000000E+000	3,8409498E-004	41	1,1128568E-005
2	0	0	1	0	4,496599886406329E+000	-2,9270682E-001	-2,9242393E-001	-5,835656489556026E-002	1,000000000000000E+000	3,7811339E-004	41	1,7064856E-005
2	0	0	1	0	4,609999883541605E+000	-3,4941104E-001	-3,4919369E-001	-6,957356751178523E-002	1,000000000000000E+000	3,7085099E-004	41	2,4294652E-005
2	0	0	1	0	4,723199880681932E+000	-4,0601531E-001	-4,0580186E-001	-8,076504406441609E-002	1,000000000000000E+000	3,6233349E-004	41	3,2774606E-005
2	0	0	1	0	4,836399877822259E+000	-4,6261954E-001	-4,6237281E-001	-9,193722659353298E-002	1,000000000000000E+000	3,5255007E-004	41	4,2509273E-005
2	0	0	1	0	4,949799874957534E+000	-5,1930147E-001	-5,1912671E-001	-1,031526022571294E-001	1,000000000000000E+000	3,4147943E-004	41	5,3549273E-005
2	0	0	1	0	5,092999871339998E+000	-5,9092027E-001	-5,9071815E-001	-1,172345019799343E-001	1,000000000000000E+000	3,2572870E-004	40	6,9252550E-005
2	0	0	1	0	5,206399868475273E+000	-6,4759111E-001	-6,4736968E-001	-1,284213778795671E-001	1,000000000000000E+000	3,1179126E-004	40	8,3136103E-005
2	0	0	1	0	5,319599865615601E+000	-7,0419538E-001	-7,0395452E-001	-1,396187822237451E-001	1,000000000000000E+000	2,9661099E-004	40	9,8285273E-005
2	0	0	1	0	5,432799862755928E+000	-7,6079959E-001	-7,6056135E-001	-1,508204514781635E-001	1,000000000000000E+000	2,8016316E-004	40	1,1470821E-004
2	0	0	1	0	5,546199859891203E+000	-8,1750375E-001	-8,1731480E-001	-1,620496389766533E-001	1,000000000000000E+000	2,6241661E-004	40	1,3244557E-004
2	0	0	1	0	5,659399857031531E+000	-8,7410808E-001	-8,7387049E-001	-1,731807315101224E-001	1,000000000000000E+000	2,4343557E-004	40	1,5133753E-004
2	0	0	1	0	5,772599854171858E+000	-9,3071240E-001	-9,3048346E-001	-1,843492951748573E-001	1,000000000000000E+000	2,2318878E-004	40	1,7153397E-004
2	0	0	1	0	5,885999851307133E+000	-9,8741651E-001	-9,8721427E-001	-1,955958301162655E-001	1,000000000000000E+000	2,0163551E-004	40	1,9309499E-004
2	0	0	1	1	5,988199848725344E+000	-9,6142983E-001	-9,6118426E-001	-1,893774804523365E-001	1,000000000000000E+000	1,8180363E-004	40	1,8202665E-004
2	0	0	1	1	6,101599845860619E+000	-9,0472567E-001	-9,0453094E-001	-1,781693350446099E-001	1,000000000000000E+000	1,6097401E-004	40	1,6115968E-004
2	0	0	1	1	6,214799843000947E+000	-8,4815466E-001	-8,4790689E-001	-1,669453177387670E-001	1,000000000000000E+000	1,4144882E-004	40	1,4155409E-004
2	0	0	1	1	6,328199840136222E+000	-7,9145056E-001	-7,9120541E-001	-1,557675851392557E-001	1,000000000000000E+000	1,2315720E-004	40	1,2324416E-004
2	0	0	1	1	6,441399837276549E+000	-7,3484623E-001	-7,3462653E-001	-1,445836246886756E-001	1,000000000000000E+000	1,0616527E-004	40	1,0621497E-004
2	0	0	1	1	6,554599834416877E+000	-6,7824203E-001	-6,7797625E-001	-1,333659413833324E-001	1,000000000000000E+000	9,0439949E-005	40	9,0418944E-005
2	0	0	1	1	6,667999831552152E+000	-6,2153786E-001	-6,2129021E-001	-1,221953826898243E-001	1,000000000000000E+000	7,5957985E-005	40	7,5918797E-005
2	0	0	1	1	6,781199828692479E+000	-5,6493366E-001	-5,6468749E-001	-1,109971885297760E-001	1,000000000000000E+000	6,2768057E-005	40	6,2678722E-005
2	0	0	1	1	6,894399825832807E+000	-5,0832933E-001	-5,0808805E-001	-9,979363922417805E-002	1,000000000000000E+000	5,0844916E-005	40	5,0703955E-005
2	0	0	1	1	7,007799822968082E+000	-4,5162520E-001	-4,5137948E-001	-8,858649718652800E-002	1,000000000000000E+000	4,0171370E-005	40	3,9986127E-005
2	0	0	1	1	7,120999820108409E+000	-3,9505425E-001	-3,9486599E-001	-7,742604482530913E-002	1,000000000000000E+000	3,0783107E-005	40	3,0572912E-005
2	0	0	1	1	7,234399817243684E+000	-3,3835006E-001	-3,3811450E-001	-6,619513596136384E-002	1,000000000000000E+000	2,2648144E-005	40	2,2381535E-005
2	0	0	1	1	7,347599814384012E+000	-2,8174579E-001	-2,8149578E-001	-5,501669291406869E-002	1,000000000000000E+000	1,5796559E-005	40	1,5486967E-005
2	0	0	1	1	7,460799811524339E+000	-2,2514156E-001	-2,2492193E-001	-4,385861940293889E-002	1,000000000000000E+000	1,0210741E-005	40	9,8647652E-006
2	0	0	1	1	7,604199807901750E+000	-1,5344507E-001	-1,5320313E-001	-2,973924555408287E-002	1,000000000000000E+000	4,8905681E-006	41	4,5561455E-006
2	0	0	1	1	7,717399805042078E+000	-9,6840814E-002	-9,6566245E-002	-1,854746376484395E-002	1,000000000000000E+000	2,1663823E-006	41	1,7910589E-006
2	0	0	1	1	7,830599802182405E+000	-4,0236562E-002	-3,9998092E-002	-7,358146907184469E-003	1,000000000000000E+000	7,0814610E-007	41	2,9431183E-007
2	1	0	0	1	7,910999800151330E+000	5,7214929E-005	1,6183381E-004	5,830529262311757E-004	1,000000000000000E+000	4,4133265E-007	41	9,4357681E-011