File: biologic_dataset_with_loop/dataset_with_loop_01_01_OCV_DUSB0_C01.mpt
EC-Lab ASCII FILE
Nb header lines : 49

Open Circuit Voltage

Run on channel : 1 (SN 5836)
User :
Electrode connection : standard
Ewe ctrl range : min = -5.00 V, max = 5.00 V
Ewe,I filtering : 50 kHz
Safety Limits :
	Do not start on E overload
Channel : Grounded
Acquisition started on : 06/24/2022 13:13:57
Technique started on : 06/24/2022 13:13:57
Saved on :
	File : 2022-06-24 13_13_40 5_EC_measurements_with_loop_01_01_OCV_DUSB0_C01.mpr
	Directory : C:\Users\Spectro Inlets Lab_1\Dropbox (Spectro Inlets)\Development\Data\Kenneth reduced data\2022-06-24 13_13_40 5_EC_measurements_with_loop\
	Host : 192.168.50.150
Device : SP-200 (SN 0763)
Address : USB
EC-Lab for windows v11.27 (software)
Internet server v11.25 (firmware)
Command interpretor v11.27 (firmware)
Electrode material :
Initial state :
Electrolyte :
Comments :
Cable : standard
Electrode surface area : 0.001 cm²
Characteristic mass : 0.001 g
Equivalent Weight : 0.000 g/eq.
Density : 0.000 g/cm3
Record Ece
Text export
   Mode : Standard
   Time format : Elapsed
Cycle Definition : Charge/Discharge alternance
tR (h:m:s)          0:00:10.0000
dER/dt (mV/h)       1.0
dER (mV)            0.00
dtR (s)             0.5000
E range min (V)     -5.000
E range max (V)     5.000

Number of loops : 1
Loop 0 from point number 0 to 20

mode	error	time/s	Ewe/V	Ece/V	Ewe-Ece/V
3	1	0.000000000000000E+000	0.854959	1.05476	-0.199797
3	0	0.5	0.854944	1.0551	-0.200156
3	0	1	0.854928	1.05476	-0.199828
3	0	1.5	0.85489	1.05469	-0.199797
3	0	2	0.854848	1.05438	-0.19953
3	0	2.5	0.854802	1.05445	-0.199645
3	0	3	0.854779	1.05434	-0.199565
3	0	3.5	0.85473	1.05424	-0.199511
3	0	4	0.85468	1.05397	-0.199286
3	0	4.5	0.854615	1.0541	-0.199488
3	0	5	0.854596	1.0539	-0.199301
3	0	5.5	0.854531	1.05352	-0.198988
3	0	6	0.854539	1.05355	-0.199015
3	0	6.5	0.854462	1.05345	-0.198988
3	0	7	0.854523	1.05324	-0.198721
3	0	7.5	0.854443	1.05318	-0.198732
3	0	8	0.854409	1.05307	-0.198664
3	0	8.5	0.854352	1.05304	-0.198687
3	0	9	0.854359	1.0528	-0.198439
3	0	9.5	0.854279	1.05287	-0.198587
3	0	9.9998	0.854256	1.05266	-0.198404