File: zilien_version_2/2022-09-19 11_31_19 test-3/2022-09-19 11_31_19 test-23_02_C01.mpt
EC-Lab ASCII FILE
Nb header lines : 58

Chronopotentiometry

Run on channel : 1 (SN 15565)
User :
Electrode connection : standard
Potential control : Ewe
Ewe ctrl range : min = -10,00 V, max = 10,00 V
Ewe,I filtering : <None>
Safety Limits :
	Do not start on E overload
Channel : Grounded
Acquisition started on : 09/19/2022 11:32:03.956
Technique started on : 09/19/2022 11:32:04.456
Loaded Setting File :  NONE
Saved on :
	File : 2022-09-19 11_31_19 test-23_02_C01.mpr
	Directory : C:\Users\Spectro\Spectro Inlets Dropbox\08 Development\Data\eclab-integration\2022-09-19 11_31_19 test-23\
	Host : 192.168.56.1
Device : SP-300 (SN 1920)
Address : USB
EC-Lab for windows v11.43 (software)
Internet server v11.40 (firmware)
Command interpretor v11.43 (firmware)
Electrode material :
Initial state :
Electrolyte :
Comments :
Cable : standard
Electrode surface area : 0,001 cm²
Characteristic mass : 0,001 g
Equivalent Weight : 0,000 g/eq.
Density : 0,000 g/cm3
Volume (V) : 0,001 cm³
Text export
   Mode : Standard
   Time format : Elapsed
Cycle Definition : Charge/Discharge alternance
Is                  20,000
unit Is             µA
vs.                 <None>
ts (h:m:s)          0:00:15,0000
EM (V)              0,200
dQM                 83,333
unit dQM            nA.h
record              <Ewe>
dEs (mV)            0,00
dts (s)             0,5000
E range min (V)     -10,000
E range max (V)     10,000
I Range             100 µA
Bandwidth           8
goto Ns'            0
nc cycles           0

mode	ox/red	error	control changes	Ns changes	counter inc.	Ns	time/s	control/mA	<Ewe>/V	I/mA	dQ/C	(Q-Qo)/C	half cycle	Q charge/discharge/mA.h	I Range	Q discharge/mA.h	Q charge/mA.h	Capacity/mA.h	Efficiency/%	cycle number	P/W
1	1	0	0	0	0	0	4,999999873689376E-001	2,0000001E-002	9,9484339E-002	2,0014478E-002	9,0006279E-006	9,0006279E-006	0	2,500174475419852E-006	41	0,000000000000000E+000	2,500174475419852E-006	2,500174475419852E-006	0,0000000E+000	0,000000000000000E+000	1,9911272E-006
1	1	0	0	0	0	0	9,999999747378752E-001	2,0000001E-002	1,0126753E-001	2,0019058E-002	1,9005569E-005	1,9005569E-005	0	5,279324532383018E-006	41	0,000000000000000E+000	5,279324532383018E-006	5,279324532383018E-006	0,0000000E+000	0,000000000000000E+000	2,0272805E-006
1	1	0	0	0	0	0	1,499999962106813E+000	2,0000001E-002	1,0126988E-001	2,0003786E-002	2,9010642E-005	2,9010642E-005	0	8,058511818552182E-006	41	0,000000000000000E+000	8,058511818552182E-006	8,058511818552182E-006	0,0000000E+000	0,000000000000000E+000	2,0257810E-006
1	1	0	0	0	0	0	1,999999949475750E+000	2,0000001E-002	1,0126702E-001	2,0013332E-002	3,9015675E-005	3,9015675E-005	0	1,083768760806157E-005	41	0,000000000000000E+000	1,083768760806157E-005	1,083768760806157E-005	0,0000000E+000	0,000000000000000E+000	2,0266905E-006
1	1	0	0	0	0	0	2,499999936844688E+000	2,0000001E-002	0,0000000E+000	2,0013712E-002	4,9020713E-005	4,9020713E-005	0	1,361686479269217E-005	41	0,000000000000000E+000	1,361686479269217E-005	1,361686479269217E-005	0,0000000E+000	0,000000000000000E+000	2,0267150E-006
1	1	0	0	0	0	0	2,999999924213625E+000	2,0000001E-002	0,0000000E+000	2,0017531E-002	5,9026152E-005	5,9026152E-005	0	1,639615305896021E-005	41	0,000000000000000E+000	1,639615305896021E-005	1,639615305896021E-005	0,0000000E+000	0,000000000000000E+000	2,0271577E-006
1	1	0	0	0	0	0	3,499999911582563E+000	2,0000001E-002	0,0000000E+000	2,0013331E-002	6,9031652E-005	6,9031652E-005	0	1,917545846559935E-005	41	0,000000000000000E+000	1,917545846559935E-005	1,917545846559935E-005	0,0000000E+000	0,000000000000000E+000	2,0266898E-006
1	1	0	0	0	0	0	3,999999898951501E+000	2,0000001E-002	0,0000000E+000	2,0011039E-002	7,9037396E-005	7,9037396E-005	0	2,195483230768392E-005	41	0,000000000000000E+000	2,195483230768392E-005	2,195483230768392E-005	0,0000000E+000	0,000000000000000E+000	2,0265882E-006
1	1	0	0	0	0	0	4,499999886320438E+000	2,0000001E-002	0,0000000E+000	2,0007219E-002	8,9043569E-005	8,9043569E-005	0	2,473432428989973E-005	41	0,000000000000000E+000	2,473432428989973E-005	2,473432428989973E-005	0,0000000E+000	0,000000000000000E+000	2,0263137E-006
1	1	0	0	0	0	0	4,999999873689376E+000	2,0000001E-002	0,0000000E+000	2,0010276E-002	9,9049634E-005	9,9049634E-005	0	2,751378710247162E-005	41	0,000000000000000E+000	2,751378710247162E-005	2,751378710247162E-005	0,0000000E+000	0,000000000000000E+000	2,0266045E-006
1	1	0	0	0	0	0	5,499999861058313E+000	2,0000001E-002	0,0000000E+000	2,0013332E-002	1,0905551E-004	1,0905551E-004	0	3,029319704768972E-005	41	0,000000000000000E+000	3,029319704768972E-005	3,029319704768972E-005	0,0000000E+000	0,000000000000000E+000	2,0269526E-006
1	1	0	0	0	0	0	5,999999848427251E+000	2,0000001E-002	0,0000000E+000	2,0011421E-002	1,1906146E-004	1,1906146E-004	0	3,307262719070746E-005	41	0,000000000000000E+000	3,307262719070746E-005	3,307262719070746E-005	0,0000000E+000	0,000000000000000E+000	2,0267414E-006
1	1	0	0	0	0	0	6,499999835796189E+000	2,0000001E-002	0,0000000E+000	2,0000730E-002	1,2906746E-004	1,2906746E-004	0	3,585206936217016E-005	41	0,000000000000000E+000	3,585206936217016E-005	3,585206936217016E-005	0,0000000E+000	0,000000000000000E+000	2,0256589E-006
1	1	0	0	0	0	0	6,999999823165126E+000	2,0000001E-002	0,0000000E+000	2,0006839E-002	1,3907319E-004	1,3907319E-004	0	3,863144087056733E-005	41	0,000000000000000E+000	3,863144087056733E-005	3,863144087056733E-005	0,0000000E+000	0,000000000000000E+000	2,0262564E-006
1	1	0	0	0	0	0	7,499999810534064E+000	2,0000001E-002	0,0000000E+000	2,0003021E-002	1,4907893E-004	1,4907893E-004	0	4,141081237813665E-005	41	0,000000000000000E+000	4,141081237813665E-005	4,141081237813665E-005	0,0000000E+000	0,000000000000000E+000	2,0258201E-006
1	1	0	0	0	0	0	7,999999797903001E+000	2,0000001E-002	0,0000000E+000	2,0007219E-002	1,5908464E-004	1,5908464E-004	0	4,419017835158027E-005	41	0,000000000000000E+000	4,419017835158027E-005	4,419017835158027E-005	0,0000000E+000	0,000000000000000E+000	2,0262310E-006
1	1	0	0	0	0	0	8,499999785271939E+000	2,0000001E-002	0,0000000E+000	2,0012949E-002	1,6909026E-004	1,6909026E-004	0	4,696951583338281E-005	41	0,000000000000000E+000	4,696951583338281E-005	4,696951583338281E-005	0,0000000E+000	0,000000000000000E+000	2,0268378E-006
1	1	0	0	0	0	0	8,999999772640876E+000	2,0000001E-002	0,0000000E+000	2,0004548E-002	1,7909592E-004	1,7909592E-004	0	4,974886627888514E-005	41	0,000000000000000E+000	4,974886627888514E-005	4,974886627888514E-005	0,0000000E+000	0,000000000000000E+000	2,0259765E-006
1	1	0	0	0	0	0	9,499999760009814E+000	2,0000001E-002	0,0000000E+000	2,0010276E-002	1,8910167E-004	1,8910167E-004	0	5,252824351429525E-005	41	0,000000000000000E+000	5,252824351429525E-005	5,252824351429525E-005	0,0000000E+000	0,000000000000000E+000	2,0265143E-006
1	1	0	0	0	0	0	9,999999747378752E+000	2,0000001E-002	0,0000000E+000	2,0008748E-002	1,9910742E-004	1,9910742E-004	0	5,530761905666441E-005	41	0,000000000000000E+000	5,530761905666441E-005	5,530761905666441E-005	0,0000000E+000	0,000000000000000E+000	2,0263549E-006
1	1	0	0	0	0	0	1,049999973474769E+001	2,0000001E-002	0,0000000E+000	2,0009894E-002	2,0911290E-004	2,0911290E-004	0	5,808691813858847E-005	41	0,000000000000000E+000	5,808691813858847E-005	5,808691813858847E-005	0,0000000E+000	0,000000000000000E+000	2,0264183E-006
1	1	0	0	0	0	0	1,099999972211663E+001	2,0000001E-002	0,0000000E+000	2,0010276E-002	2,1911862E-004	2,1911862E-004	0	6,086628271225426E-005	41	0,000000000000000E+000	6,086628271225426E-005	6,086628271225426E-005	0,0000000E+000	0,000000000000000E+000	2,0264226E-006
1	1	0	0	0	0	0	1,149999970948556E+001	2,0000001E-002	0,0000000E+000	2,0007603E-002	2,2912450E-004	2,2912450E-004	0	6,364569700819750E-005	41	0,000000000000000E+000	6,364569700819750E-005	6,364569700819750E-005	0,0000000E+000	0,000000000000000E+000	2,0262025E-006
1	1	0	0	0	0	0	1,199999969685450E+001	2,0000001E-002	0,0000000E+000	2,0003403E-002	2,3913039E-004	2,3913039E-004	0	6,642510621177240E-005	41	0,000000000000000E+000	6,642510621177240E-005	6,642510621177240E-005	0,0000000E+000	0,000000000000000E+000	2,0257592E-006
1	1	0	0	0	0	0	1,249999968422344E+001	2,0000001E-002	0,0000000E+000	2,0011041E-002	2,4913624E-004	2,4913624E-004	0	6,920450975000859E-005	41	0,000000000000000E+000	6,920450975000859E-005	6,920450975000859E-005	0,0000000E+000	0,000000000000000E+000	2,0265329E-006
1	1	0	0	0	0	0	1,299999967159238E+001	2,0000001E-002	0,0000000E+000	2,0012185E-002	2,5914208E-004	2,5914208E-004	0	7,198390728597426E-005	41	0,000000000000000E+000	7,198390728597426E-005	7,198390728597426E-005	0,0000000E+000	0,000000000000000E+000	2,0266898E-006
1	1	0	0	0	0	0	1,349999965896131E+001	2,0000001E-002	0,0000000E+000	2,0010658E-002	2,6914795E-004	2,6914795E-004	0	7,476331604727440E-005	41	0,000000000000000E+000	7,476331604727440E-005	7,476331604727440E-005	0,0000000E+000	0,000000000000000E+000	2,0265932E-006
1	1	0	0	0	0	0	1,399999964633025E+001	2,0000001E-002	0,0000000E+000	2,0013331E-002	2,7915378E-004	2,7915378E-004	0	7,754271829645667E-005	41	0,000000000000000E+000	7,754271829645667E-005	7,754271829645667E-005	0,0000000E+000	0,000000000000000E+000	2,0268399E-006
1	1	0	0	0	0	0	1,449999963369919E+001	2,0000001E-002	0,0000000E+000	2,0010658E-002	2,8915965E-004	2,8915965E-004	0	8,032212711870671E-005	41	0,000000000000000E+000	8,032212711870671E-005	8,032212711870671E-005	0,0000000E+000	0,000000000000000E+000	2,0266141E-006
1	1	0	0	0	0	0	1,499999962106813E+001	2,0000001E-002	0,0000000E+000	2,0015242E-002	2,9916535E-004	2,9916535E-004	0	8,310148254647437E-005	41	0,000000000000000E+000	8,310148254647437E-005	8,310148254647437E-005	0,0000000E+000	0,000000000000000E+000	2,0270277E-006
1	1	0	0	0	0	0	1,505019961979997E+001	2,0000001E-002	0,0000000E+000	2,0014094E-002	3,0016995E-004	3,0016995E-004	0	8,338054368293120E-005	41	0,000000000000000E+000	8,338054368293120E-005	8,338054368293120E-005	0,0000000E+000	0,000000000000000E+000	2,0270388E-006