File: multiple_techniques_dataset/multiple_techniques_dataset_01_04_CP_C01.mpt
EC-Lab ASCII FILE
Nb header lines : 51

Chronopotentiometry

Run on channel : 1 (SN 5836)
User :
Electrode connection : standard
Ewe ctrl range : min = -10.00 V, max = 10.00 V
Ewe,I filtering : <None>
Safety Limits :
	Do not start on E overload
Channel : Grounded
Acquisition started on : 05/05/2022 15:55:02
Saved on :
	File : multiple_techniques_dataset_01_04_CP_C01.mpr
	Directory : C:\Users\Spectro Inlets\Desktop\Zilien Data Dir\multiple_techniques_dataset\
	Host : 192.168.1.105
Device : SP-200 (SN 0763)
Address : USB
EC-Lab for windows v11.27 (software)
Internet server v11.25 (firmware)
Command interpretor v11.27 (firmware)
Electrode material :
Initial state :
Electrolyte :
Comments :
Cable : standard
Electrode surface area : 0.001 cm²
Characteristic mass : 0.001 g
Equivalent Weight : 0.000 g/eq.
Density : 0.000 g/cm3
Cycle Definition : Charge/Discharge alternance
Is                  -2.000
unit Is             µA
vs.                 <None>
ts (h:m:s)          0:00:10.0000
EM (V)              0.200
dQM                 5.556
unit dQM            nA.h
record              Ewe
dEs (mV)            10.00
dts (s)             1.0000
E range min (V)     -10.000
E range max (V)     10.000
I Range             100 µA
Bandwidth           1
goto Ns'            0
nc cycles           0

mode	ox/red	error	control changes	Ns changes	counter inc.	Ns	time/s	control/mA	Ewe/V	I/mA	dQ/C	(Q-Qo)/C	half cycle	Q charge/discharge/mA.h	I Range	Rcmp/Ohm	Energy charge/W.h	Energy discharge/W.h	Capacitance charge/µF	Capacitance discharge/µF	Q discharge/mA.h	Q charge/mA.h	Capacity/mA.h	Efficiency/%	cycle number	P/W
1	0	0	0	0	0	0	589.481	-0.002	0.826136	-0.00197177	0.0000000E+000	0.0000000E+000	0	0.000000000000000E+000	41	0.0000000E+000	0.000000000000000E+000	0.000000000000000E+000	0.000000000000000E+000	0.000000000000000E+000	0.000000000000000E+000	0.000000000000000E+000	0.000000000000000E+000	0.0000000E+000	0.000000000000000E+000	-1.62895e-06
1	0	0	0	0	0	0	590.187	-0.002	0.816126	-0.00188398	-1.40419e-06	-1.40419e-06	0	-3.90052e-07	41	0.0000000E+000	0.000000000000000E+000	-3.18332e-10	0.000000000000000E+000	0.000000000000000E+000	3.90052e-07	0.000000000000000E+000	3.90052e-07	0.0000000E+000	0.000000000000000E+000	-1.53756e-06
1	0	0	0	0	0	0	591.187	-0.002	0.80737	-0.00199658	-3.38634e-06	-3.38634e-06	0	-9.40651e-07	41	0.0000000E+000	0.000000000000000E+000	-7.62869e-10	0.000000000000000E+000	386.728	9.40651e-07	0.000000000000000E+000	9.40651e-07	0.0000000E+000	0.000000000000000E+000	-1.61198e-06
1	0	0	0	0	0	0	592.055	-0.002	0.797261	-0.00177251	-5.10688e-06	-5.10688e-06	0	-1.41858e-06	41	0.0000000E+000	0.000000000000000E+000	-1.1439e-09	0.000000000000000E+000	270.704	1.41858e-06	0.000000000000000E+000	1.41858e-06	0.0000000E+000	0.000000000000000E+000	-1.41316e-06
1	0	0	0	0	0	0	592.964	-0.002	0.786625	-0.00170762	-6.91123e-06	-6.91123e-06	0	-1.91979e-06	41	0.0000000E+000	0.000000000000000E+000	-1.53816e-09	0.000000000000000E+000	234.27	1.91979e-06	0.000000000000000E+000	1.91979e-06	0.0000000E+000	0.000000000000000E+000	-1.34326e-06
1	0	0	0	0	0	0	593.833	-0.002	0.776539	-0.00188894	-8.6396e-06	-8.6396e-06	0	-2.39989e-06	41	0.0000000E+000	0.000000000000000E+000	-1.91098e-09	0.000000000000000E+000	218.244	2.39989e-06	0.000000000000000E+000	2.39989e-06	0.0000000E+000	0.000000000000000E+000	-1.46684e-06
1	0	0	0	0	0	0	594.546	-0.002	0.76619	-0.0017416	-1.00557e-05	-1.00557e-05	0	-2.79326e-06	41	0.0000000E+000	0.000000000000000E+000	-2.21238e-09	0.000000000000000E+000	201.371	2.79326e-06	0.000000000000000E+000	2.79326e-06	0.0000000E+000	0.000000000000000E+000	-1.33439e-06
1	0	0	0	0	0	0	595.185	-0.002	0.756031	-0.00180534	-1.13245e-05	-1.13245e-05	0	-3.14571e-06	41	0.0000000E+000	0.000000000000000E+000	-2.47884e-09	0.000000000000000E+000	188.445	3.14571e-06	0.000000000000000E+000	3.14571e-06	0.0000000E+000	0.000000000000000E+000	-1.3649e-06
1	0	0	0	0	0	0	595.717	-0.002	0.745961	-0.00176832	-1.23806e-05	-1.23806e-05	0	-3.43905e-06	41	0.0000000E+000	0.000000000000000E+000	-2.69766e-09	0.000000000000000E+000	176.449	3.43905e-06	0.000000000000000E+000	3.43905e-06	0.0000000E+000	0.000000000000000E+000	-1.31909e-06
1	0	0	0	0	0	0	596.209	-0.002	0.735902	-0.00190077	-1.33572e-05	-1.33572e-05	0	-3.71032e-06	41	0.0000000E+000	0.000000000000000E+000	-2.89729e-09	0.000000000000000E+000	166.497	3.71032e-06	0.000000000000000E+000	3.71032e-06	0.0000000E+000	0.000000000000000E+000	-1.39878e-06
1	0	0	0	0	0	0	596.652	-0.002	0.725888	-0.00186489	-1.42346e-05	-1.42346e-05	0	-3.95407e-06	41	0.0000000E+000	0.000000000000000E+000	-3.07422e-09	0.000000000000000E+000	157.746	3.95407e-06	0.000000000000000E+000	3.95407e-06	0.0000000E+000	0.000000000000000E+000	-1.3537e-06
1	0	0	0	0	0	0	597.036	-0.002	0.715783	-0.0018313	-1.49995e-05	-1.49995e-05	0	-4.16653e-06	41	0.0000000E+000	0.000000000000000E+000	-3.2263e-09	0.000000000000000E+000	149.483	4.16653e-06	0.000000000000000E+000	4.16653e-06	0.0000000E+000	0.000000000000000E+000	-1.31081e-06
1	0	0	0	0	0	0	597.39	-0.002	0.705728	-0.00174579	-1.57024e-05	-1.57024e-05	0	-4.36177e-06	41	0.0000000E+000	0.000000000000000E+000	-3.36409e-09	0.000000000000000E+000	142.234	4.36177e-06	0.000000000000000E+000	4.36177e-06	0.0000000E+000	0.000000000000000E+000	-1.23206e-06
1	0	0	0	0	0	0	597.731	-0.002	0.695684	-0.00189314	-1.63809e-05	-1.63809e-05	0	-4.55025e-06	41	0.0000000E+000	0.000000000000000E+000	-3.49521e-09	0.000000000000000E+000	136.007	4.55025e-06	0.000000000000000E+000	4.55025e-06	0.0000000E+000	0.000000000000000E+000	-1.31703e-06
1	0	0	0	0	0	0	598.044	-0.002	0.685606	-0.00189085	-1.70037e-05	-1.70037e-05	0	-4.72326e-06	41	0.0000000E+000	0.000000000000000E+000	-3.61383e-09	0.000000000000000E+000	130.277	4.72326e-06	0.000000000000000E+000	4.72326e-06	0.0000000E+000	0.000000000000000E+000	-1.29638e-06
1	0	0	0	0	0	0	598.335	-0.002	0.675272	-0.00185039	-1.75814e-05	-1.75814e-05	0	-4.88373e-06	41	0.0000000E+000	0.000000000000000E+000	-3.72219e-09	0.000000000000000E+000	124.82	4.88373e-06	0.000000000000000E+000	4.88373e-06	0.0000000E+000	0.000000000000000E+000	-1.24951e-06
1	0	0	0	0	0	0	598.606	-0.002	0.665247	-0.00188818	-1.81204e-05	-1.81204e-05	0	-5.03345e-06	41	0.0000000E+000	0.000000000000000E+000	-3.82179e-09	0.000000000000000E+000	120.099	5.03345e-06	0.000000000000000E+000	5.03345e-06	0.0000000E+000	0.000000000000000E+000	-1.2561e-06
1	0	0	0	0	0	0	598.848	-0.002	0.655005	-0.00181679	-1.86001e-05	-1.86001e-05	0	-5.16671e-06	41	0.0000000E+000	0.000000000000000E+000	-3.90907e-09	0.000000000000000E+000	115.442	5.16671e-06	0.000000000000000E+000	5.16671e-06	0.0000000E+000	0.000000000000000E+000	-1.19001e-06
1	0	0	0	0	0	0	599.088	-0.002	0.644992	-0.00186146	-1.90758e-05	-1.90758e-05	0	-5.29884e-06	41	0.0000000E+000	0.000000000000000E+000	-3.99429e-09	0.000000000000000E+000	111.467	5.29884e-06	0.000000000000000E+000	5.29884e-06	0.0000000E+000	0.000000000000000E+000	-1.20062e-06
1	0	0	0	0	0	0	599.304	-0.002	0.634642	-0.00183054	-1.95059e-05	-1.95059e-05	0	-5.4183e-06	41	0.0000000E+000	0.000000000000000E+000	-4.07011e-09	0.000000000000000E+000	107.48	5.4183e-06	0.000000000000000E+000	5.4183e-06	0.0000000E+000	0.000000000000000E+000	-1.16174e-06
1	0	0	0	0	0	0	599.48	-0.002	0.627196	-0.00193933	-1.98552e-05	-1.98552e-05	0	-5.51534e-06	41	0.0000000E+000	0.000000000000000E+000	-4.13097e-09	0.000000000000000E+000	105.093	5.51534e-06	0.000000000000000E+000	5.51534e-06	0.0000000E+000	0.000000000000000E+000	-1.21634e-06