File: zilien_version_2/2022-09-19 11_27_59 test-1/2022-09-19 11_27_59 test-21_01_02_CP_C01.mpt
EC-Lab ASCII FILE
Nb header lines : 58

Chronopotentiometry

Run on channel : 1 (SN 15565)
User :
Electrode connection : standard
Potential control : Ewe
Ewe ctrl range : min = -10,00 V, max = 10,00 V
Ewe,I filtering : <None>
Safety Limits :
	Do not start on E overload
Channel : Grounded
Acquisition started on : 09/19/2022 11:28:15.894
Technique started on : 09/19/2022 11:28:24.305
Loaded Setting File :  NONE
Saved on :
	File : 2022-09-19 11_27_59 test-21_01_02_CP_C01.mpr
	Directory : C:\Users\Spectro\Spectro Inlets Dropbox\08 Development\Data\eclab-integration\2022-09-19 11_27_59 test-21\
	Host : 192.168.56.1
Device : SP-300 (SN 1920)
Address : USB
EC-Lab for windows v11.43 (software)
Internet server v11.40 (firmware)
Command interpretor v11.43 (firmware)
Electrode material :
Initial state :
Electrolyte :
Comments :
Cable : standard
Electrode surface area : 0,001 cm²
Characteristic mass : 0,001 g
Equivalent Weight : 0,000 g/eq.
Density : 0,000 g/cm3
Volume (V) : 0,001 cm³
Text export
   Mode : Standard
   Time format : Elapsed
Cycle Definition : Charge/Discharge alternance
Is                  20,000
unit Is             µA
vs.                 <None>
ts (h:m:s)          0:00:10,0000
EM (V)              0,200
dQM                 55,556
unit dQM            nA.h
record              <Ewe>
dEs (mV)            0,00
dts (s)             0,5000
E range min (V)     -10,000
E range max (V)     10,000
I Range             100 µA
Bandwidth           8
goto Ns'            0
nc cycles           0

mode	ox/red	error	control changes	Ns changes	counter inc.	Ns	time/s	control/mA	<Ewe>/V	I/mA	dQ/C	(Q-Qo)/C	half cycle	Q charge/discharge/mA.h	I Range	Q discharge/mA.h	Q charge/mA.h	Capacity/mA.h	Efficiency/%	cycle number	P/W
1	1	0	0	0	0	0	8,410999787520268E+000	2,0000001E-002	9,9239662E-002	2,0012949E-002	7,9656056E-006	7,9656056E-006	0	2,212668305469884E-006	41	0,000000000000000E+000	2,212668305469884E-006	2,212668305469884E-006	0,0000000E+000	0,000000000000000E+000	1,9860784E-006
1	1	0	0	0	0	0	8,910999774889206E+000	2,0000001E-002	1,0126146E-001	2,0004930E-002	1,7972639E-005	1,7972639E-005	0	4,992399735893640E-006	41	0,000000000000000E+000	4,992399735893640E-006	4,992399735893640E-006	0,0000000E+000	0,000000000000000E+000	2,0257285E-006
1	1	0	0	0	0	0	9,410999762258143E+000	2,0000001E-002	1,0126092E-001	2,0014858E-002	2,7979593E-005	2,7979593E-005	0	7,772109291516244E-006	41	0,000000000000000E+000	7,772109291516244E-006	7,772109291516244E-006	0,0000000E+000	0,000000000000000E+000	2,0267228E-006
1	1	0	0	0	0	0	9,910999749627081E+000	2,0000001E-002	1,0126487E-001	2,0001493E-002	3,7986705E-005	3,7986705E-005	0	1,055186216574576E-005	41	0,000000000000000E+000	1,055186216574576E-005	1,055186216574576E-005	0,0000000E+000	0,000000000000000E+000	2,0254486E-006
1	1	0	0	0	0	0	1,041099973699602E+001	2,0000001E-002	1,0126314E-001	2,0018676E-002	4,7993926E-005	4,7993926E-005	0	1,333164615908431E-005	41	0,000000000000000E+000	1,333164615908431E-005	1,333164615908431E-005	0,0000000E+000	0,000000000000000E+000	2,0271539E-006
1	1	0	0	0	0	0	1,091099972436496E+001	2,0000001E-002	1,0126595E-001	2,0016385E-002	5,8001118E-005	5,8001118E-005	0	1,611142155952338E-005	41	0,000000000000000E+000	1,611142155952338E-005	1,611142155952338E-005	0,0000000E+000	0,000000000000000E+000	2,0269783E-006
1	1	0	0	0	0	0	1,141099971173389E+001	2,0000001E-002	1,0126489E-001	2,0018294E-002	6,8007786E-005	6,8007786E-005	0	1,889105137354798E-005	41	0,000000000000000E+000	1,889105137354798E-005	1,889105137354798E-005	0,0000000E+000	0,000000000000000E+000	2,0271502E-006
1	1	0	0	0	0	0	1,191099969910283E+001	2,0000001E-002	1,0126085E-001	2,0010276E-002	7,8014018E-005	7,8014018E-005	0	2,167056157978045E-005	41	0,000000000000000E+000	2,167056157978045E-005	2,167056157978045E-005	0,0000000E+000	0,000000000000000E+000	2,0262576E-006
1	1	0	0	0	0	0	1,241099968647177E+001	2,0000001E-002	1,0125528E-001	2,0018294E-002	8,8020228E-005	8,8020228E-005	0	2,445006359585871E-005	41	0,000000000000000E+000	2,445006359585871E-005	2,445006359585871E-005	0,0000000E+000	0,000000000000000E+000	2,0269581E-006
1	1	0	0	0	0	0	1,291099967384071E+001	2,0000001E-002	1,0125357E-001	2,0015622E-002	9,8026314E-005	9,8026314E-005	0	2,722953124592702E-005	41	0,000000000000000E+000	2,722953124592702E-005	2,722953124592702E-005	0,0000000E+000	0,000000000000000E+000	2,0266532E-006
1	1	0	0	0	0	0	1,341099966120964E+001	2,0000001E-002	1,0125977E-001	2,0011039E-002	1,0803262E-004	1,0803262E-004	0	3,000906069431868E-005	41	0,000000000000000E+000	3,000906069431868E-005	3,000906069431868E-005	0,0000000E+000	0,000000000000000E+000	2,0263133E-006
1	1	0	0	0	0	0	1,391099964857858E+001	2,0000001E-002	0,0000000E+000	2,0017149E-002	1,1803871E-004	1,1803871E-004	0	3,278853133962386E-005	41	0,000000000000000E+000	3,278853133962386E-005	3,278853133962386E-005	0,0000000E+000	0,000000000000000E+000	2,0269149E-006
1	1	0	0	0	0	0	1,441099963594752E+001	2,0000001E-002	0,0000000E+000	2,0009130E-002	1,2804502E-004	1,2804502E-004	0	3,556806129527588E-005	41	0,000000000000000E+000	3,556806129527588E-005	3,556806129527588E-005	0,0000000E+000	0,000000000000000E+000	2,0261241E-006
1	1	0	0	0	0	0	1,491099962331646E+001	2,0000001E-002	0,0000000E+000	2,0014478E-002	1,3805121E-004	1,3805121E-004	0	3,834755819766886E-005	41	0,000000000000000E+000	3,834755819766886E-005	3,834755819766886E-005	0,0000000E+000	0,000000000000000E+000	2,0265859E-006
1	1	0	0	0	0	0	1,541099961068539E+001	2,0000001E-002	0,0000000E+000	2,0014478E-002	1,4805738E-004	1,4805738E-004	0	4,112705157676505E-005	41	0,000000000000000E+000	4,112705157676505E-005	4,112705157676505E-005	0,0000000E+000	0,000000000000000E+000	2,0265779E-006
1	1	0	0	0	0	0	1,591099959805433E+001	2,0000001E-002	0,0000000E+000	2,0014478E-002	1,5806335E-004	1,5806335E-004	0	4,390648570998261E-005	41	0,000000000000000E+000	4,390648570998261E-005	4,390648570998261E-005	0,0000000E+000	0,000000000000000E+000	2,0265634E-006
1	1	0	0	0	0	0	1,641099958542327E+001	2,0000001E-002	0,0000000E+000	2,0010276E-002	1,6806959E-004	1,6806959E-004	0	4,668599699613535E-005	41	0,000000000000000E+000	4,668599699613535E-005	4,668599699613535E-005	0,0000000E+000	0,000000000000000E+000	2,0262116E-006
1	1	0	0	0	0	0	1,691099957279221E+001	2,0000001E-002	0,0000000E+000	2,0012567E-002	1,7807586E-004	1,7807586E-004	0	4,946551640828450E-005	41	0,000000000000000E+000	4,946551640828450E-005	4,946551640828450E-005	0,0000000E+000	0,000000000000000E+000	2,0264367E-006
1	1	0	0	0	0	0	1,741099956016114E+001	2,0000001E-002	0,0000000E+000	2,0012949E-002	1,8808189E-004	1,8808189E-004	0	5,224497023100654E-005	41	0,000000000000000E+000	5,224497023100654E-005	5,224497023100654E-005	0,0000000E+000	0,000000000000000E+000	2,0264981E-006
1	1	0	0	0	0	0	1,791099954753008E+001	2,0000001E-002	0,0000000E+000	2,0004166E-002	1,9808802E-004	1,9808802E-004	0	5,502444974032955E-005	41	0,000000000000000E+000	5,502444974032955E-005	5,502444974032955E-005	0,0000000E+000	0,000000000000000E+000	2,0256948E-006
1	1	0	0	0	0	0	1,801299954495335E+001	2,0000001E-002	0,0000000E+000	2,0015242E-002	2,0012932E-004	2,0012932E-004	0	5,559147847423123E-005	41	0,000000000000000E+000	5,559147847423123E-005	5,559147847423123E-005	0,0000000E+000	0,000000000000000E+000	2,0268612E-006