File: zilien_version_1/2022-04-06 16_17_23 full set_01_01_CP_DUSB0_C01.mpt
EC-Lab ASCII FILE
Nb header lines : 59

Chronopotentiometry

Run on channel : 1 (SN 5836)
User :
Electrode connection : standard
Ewe ctrl range : min = -10.00 V, max = 5.00 V
Ewe,I filtering : 50 kHz
Safety Limits :
	Do not start on E overload
Channel : Floating
Acquisition started on : 04/06/2022 16:19:01
Technique started on : 04/06/2022 16:19:01
Saved on :
	File : 2022-04-06 16_17_23 full set_01_01_CP_DUSB0_C01.mpr
	Directory : C:\Users\Spectro Inlets Lab_1\Dropbox (Spectro Inlets)\Development\Data\Kenneth reduced data\2022-04-06 16_17_23 full set\
	Host : 192.168.1.105
Device : SP-200 (SN 0763)
Address : USB
EC-Lab for windows v11.27 (software)
Internet server v11.25 (firmware)
Command interpretor v11.27 (firmware)
Electrode material :
Initial state :
Electrolyte :
Comments :
Cable : standard
Electrode surface area : 0.001 cm²
Characteristic mass : 0.001 g
Equivalent Weight : 0.000 g/eq.
Density : 0.000 g/cm3
Record Ece
Text export
   Mode : Standard
   Time format : Elapsed
Cycle Definition : Charge/Discharge alternance
Is                  0.000
unit Is             µA
vs.                 <None>
ts (h:m:s)          0:00:10.0000
EM (V)              pass
dQM                 0.000
unit dQM            mA.h
record              Ewe
dEs (mV)            10.00
dts (s)             1.0000
E range min (V)     -10.000
E range max (V)     5.000
I Range             10 µA
Bandwidth           1
goto Ns'            0
nc cycles           0

Number of loops : 1
Loop 0 from point number 0 to 10

mode	ox/red	error	control changes	Ns changes	counter inc.	Ns	time/s	control/mA	Ewe/V	I/mA	dQ/C	(Q-Qo)/C	half cycle	Q charge/discharge/mA.h	I Range	Ece/V	Q discharge/mA.h	Q charge/mA.h	Capacity/mA.h	Efficiency/%	cycle number	P/W	Ewe-Ece/V
1	1	0	0	0	0	0	0.000000000000000E+000	0.0000000E+000	0.591712	1.66552e-06	0.0000000E+000	0.0000000E+000	0	0.000000000000000E+000	42	1.30393	0.000000000000000E+000	0.000000000000000E+000	0.000000000000000E+000	0.0000000E+000	0.000000000000000E+000	9.85505e-10	-0.712217
1	1	0	0	0	0	0	1	0.0000000E+000	0.592382	1.24591e-06	1.38718e-09	1.38718e-09	0	3.85329e-10	42	1.30393	0.000000000000000E+000	3.85329e-10	3.85329e-10	0.0000000E+000	0.000000000000000E+000	7.38058e-10	-0.711547
1	1	0	0	0	0	0	2	0.0000000E+000	0.593158	1.89439e-06	2.92641e-09	2.92641e-09	0	8.12893e-10	42	1.30362	0.000000000000000E+000	8.12893e-10	8.12893e-10	0.0000000E+000	0.000000000000000E+000	1.12367e-09	-0.710462
1	1	0	0	0	0	0	3	0.0000000E+000	0.593964	2.08512e-06	4.57532e-09	4.57532e-09	0	1.27092e-09	42	1.30414	0.000000000000000E+000	1.27092e-09	1.27092e-09	0.0000000E+000	0.000000000000000E+000	1.23848e-09	-0.710171
1	1	0	0	0	0	0	4	0.0000000E+000	0.594781	2.12326e-06	6.20961e-09	6.20961e-09	0	1.72489e-09	42	1.30314	0.000000000000000E+000	1.72489e-09	1.72489e-09	0.0000000E+000	0.000000000000000E+000	1.26288e-09	-0.708357
1	1	0	0	0	0	0	5	0.0000000E+000	0.595545	1.51293e-06	7.8818e-09	7.8818e-09	0	2.18939e-09	42	1.3031	0.000000000000000E+000	2.18939e-09	2.18939e-09	0.0000000E+000	0.000000000000000E+000	9.01021e-10	-0.707559
1	1	0	0	0	0	0	6	0.0000000E+000	0.596359	1.51293e-06	9.67168e-09	9.67168e-09	0	2.68658e-09	42	1.30345	0.000000000000000E+000	2.68658e-09	2.68658e-09	0.0000000E+000	0.000000000000000E+000	9.02252e-10	-0.707089
1	1	0	0	0	0	0	7	0.0000000E+000	0.59715	2.08512e-06	1.1467e-08	1.1467e-08	0	3.18529e-09	42	1.30283	0.000000000000000E+000	3.18529e-09	3.18529e-09	0.0000000E+000	0.000000000000000E+000	1.24513e-09	-0.705679
1	1	0	0	0	0	0	8	0.0000000E+000	0.597956	1.89439e-06	1.32878e-08	1.32878e-08	0	3.69107e-09	42	1.30273	0.000000000000000E+000	3.69107e-09	3.69107e-09	0.0000000E+000	0.000000000000000E+000	1.13276e-09	-0.70477
1	1	0	0	0	0	0	9	0.0000000E+000	0.59872	2.12326e-06	1.51044e-08	1.51044e-08	0	4.19568e-09	42	1.30297	0.000000000000000E+000	4.19568e-09	4.19568e-09	0.0000000E+000	0.000000000000000E+000	1.27124e-09	-0.704247
1	1	0	0	0	0	0	9.9998	0.0000000E+000	0.59953	2.00882e-06	1.68973e-08	1.68973e-08	0	4.69369e-09	42	1.30207	0.000000000000000E+000	4.69369e-09	4.69369e-09	0.0000000E+000	0.000000000000000E+000	1.20435e-09	-0.702543